# TIME_STAMP_s,TIME_STAMP_ms,OR_TIME_STAMP_s,OR_TIME_STAMP_ms,COUNTER,INTERPOLATED,AF3,T7,Pz,T8,AF4,RAW_CQ,BATTERY,BATTERY_PERCENT,MarkerIndex,MarkerType,MarkerValueInt,MARKER_HARDWARE,CQ_AF3,CQ_T7,CQ_Pz,CQ_T8,CQ_AF4,CQ_OVERALL,EQ_SampleRateQua,EQ_OVERALL,EQ_AF3,EQ_T7,EQ_Pz,EQ_T8,EQ_AF4
0.000000000000000000e+00,0.000000000000000000e+00,0.000000000000000000e+00,0.000000000000000000e+00,7.499999999999999343e-05,0.000000000000000000e+00,4.292820512820512760e-03,4.594358974358973488e-03,4.234871794871794548e-03,4.156410256410256014e-03,4.273333333333332977e-03,1.617499999999999841e-02,9.999999999999999547e-07,1.499999999999999869e-05,0.000000000000000000e+00,0.000000000000000000e+00,0.000000000000000000e+00,0.000000000000000000e+00,3.999999999999999819e-06,3.999999999999999819e-06,1.999999999999999909e-06,3.999999999999999819e-06,3.999999999999999819e-06,8.299999999999999815e-05,0.000000000000000000e+00,0.000000000000000000e+00,0.000000000000000000e+00,0.000000000000000000e+00,0.000000000000000000e+00,0.000000000000000000e+00,0.000000000000000000e+00
0.000000000000000000e+00,7.799999999999999859e-06,0.000000000000000000e+00,7.999999999999999638e-06,7.599999999999999063e-05,0.000000000000000000e+00,4.252820512820512655e-03,4.568717948717947869e-03,4.219999999999999793e-03,4.119999999999999531e-03,4.235384615384614818e-03,4.499999999999999877e-04,9.999999999999999547e-07,1.499999999999999869e-05,0.000000000000000000e+00,0.000000000000000000e+00,0.000000000000000000e+00,0.000000000000000000e+00,3.999999999999999819e-06,3.999999999999999819e-06,1.999999999999999909e-06,3.999999999999999819e-06,3.999999999999999819e-06,8.299999999999999815e-05,0.000000000000000000e+00,0.000000000000000000e+00,0.000000000000000000e+00,0.000000000000000000e+00,0.000000000000000000e+00,0.000000000000000000e+00,0.000000000000000000e+00
0.000000000000000000e+00,1.559999999999999972e-05,0.000000000000000000e+00,1.599999999999999928e-05,7.700000000000000139e-05,0.000000000000000000e+00,4.280512820512820220e-03,4.554358974358973383e-03,4.232820512820512603e-03,4.173333333333332715e-03,4.243076923076922330e-03,4.499999999999999877e-04,9.999999999999999547e-07,1.499999999999999869e-05,0.000000000000000000e+00,0.000000000000000000e+00,0.000000000000000000e+00,0.000000000000000000e+00,3.999999999999999819e-06,3.999999999999999819e-06,1.999999999999999909e-06,3.999999999999999819e-06,3.999999999999999819e-06,8.299999999999999815e-05,0.000000000000000000e+00,0.000000000000000000e+00,0.000000000000000000e+00,0.000000000000000000e+00,0.000000000000000000e+00,0.000000000000000000e+00,0.000000000000000000e+00
0.000000000000000000e+00,2.339999999999999958e-05,0.000000000000000000e+00,2.300000000000000002e-05,7.799999999999999859e-05,0.000000000000000000e+00,4.282564102564102165e-03,4.482051282051280686e-03,4.236923076923075626e-03,4.180512820512819958e-03,4.281538461538460759e-03,4.499999999999999877e-04,9.999999999999999547e-07,1.499999999999999869e-05,0.000000000000000000e+00,0.000000000000000000e+00,0.000000000000000000e+00,0.000000000000000000e+00,3.999999999999999819e-06,3.999999999999999819e-06,1.999999999999999909e-06,3.999999999999999819e-06,3.999999999999999819e-06,8.299999999999999815e-05,0.000000000000000000e+00,0.000000000000000000e+00,0.000000000000000000e+00,0.000000000000000000e+00,0.000000000000000000e+00,0.000000000000000000e+00,0.000000000000000000e+00
0.000000000000000000e+00,3.119999999999999944e-05,0.000000000000000000e+00,3.100000000000000135e-05,7.899999999999999579e-05,0.000000000000000000e+00,4.238974358974358439e-03,4.457948717948717610e-03,4.225128205128205090e-03,4.131794871794870934e-03,4.277948717948718005e-03,1.617499999999999841e-02,9.999999999999999547e-07,1.499999999999999869e-05,0.000000000000000000e+00,0.000000000000000000e+00,0.000000000000000000e+00,0.000000000000000000e+00,3.999999999999999819e-06,3.999999999999999819e-06,1.999999999999999909e-06,3.999999999999999819e-06,3.999999999999999819e-06,8.299999999999999815e-05,0.000000000000000000e+00,0.000000000000000000e+00,0.000000000000000000e+00,0.000000000000000000e+00,0.000000000000000000e+00,0.000000000000000000e+00,0.000000000000000000e+00
0.000000000000000000e+00,3.899999999999999929e-05,0.000000000000000000e+00,3.899999999999999929e-05,7.999999999999999299e-05,0.000000000000000000e+00,4.277948717948718005e-03,4.523076923076923064e-03,4.239487179487178709e-03,4.166666666666665741e-03,4.292820512820512760e-03,4.499999999999999877e-04,9.999999999999999547e-07,1.499999999999999869e-05,0.000000000000000000e+00,0.000000000000000000e+00,0.000000000000000000e+00,0.000000000000000000e+00,3.999999999999999819e-06,3.999999999999999819e-06,1.999999999999999909e-06,3.999999999999999819e-06,3.999999999999999819e-06,8.299999999999999815e-05,0.000000000000000000e+00,0.000000000000000000e+00,0.000000000000000000e+00,0.000000000000000000e+00,0.000000000000000000e+00,0.000000000000000000e+00,0.000000000000000000e+00
0.000000000000000000e+00,4.679999999999999915e-05,0.000000000000000000e+00,4.699999999999999724e-05,8.099999999999999019e-05,0.000000000000000000e+00,4.326666666666666161e-03,4.520512820512819982e-03,4.248717948717947897e-03,4.194871794871794443e-03,4.324615384615383348e-03,4.499999999999999877e-04,9.999999999999999547e-07,1.499999999999999869e-05,0.000000000000000000e+00,0.000000000000000000e+00,0.000000000000000000e+00,0.000000000000000000e+00,3.999999999999999819e-06,3.999999999999999819e-06,1.999999999999999909e-06,3.999999999999999819e-06,3.999999999999999819e-06,8.299999999999999815e-05,0.000000000000000000e+00,0.000000000000000000e+00,0.000000000000000000e+00,0.000000000000000000e+00,0.000000000000000000e+00,0.000000000000000000e+00,0.000000000000000000e+00
0.000000000000000000e+00,5.470000000000000144e-05,0.000000000000000000e+00,5.499999999999999518e-05,8.200000000000000095e-05,0.000000000000000000e+00,4.296923076923075784e-03,4.471794871794870958e-03,4.231282051282050927e-03,4.157435897435897421e-03,4.281538461538460759e-03,4.499999999999999877e-04,9.999999999999999547e-07,1.499999999999999869e-05,0.000000000000000000e+00,0.000000000000000000e+00,0.000000000000000000e+00,0.000000000000000000e+00,3.999999999999999819e-06,3.999999999999999819e-06,1.999999999999999909e-06,3.999999999999999819e-06,3.999999999999999819e-06,8.299999999999999815e-05,0.000000000000000000e+00,0.000000000000000000e+00,0.000000000000000000e+00,0.000000000000000000e+00,0.000000000000000000e+00,0.000000000000000000e+00,0.000000000000000000e+00
0.000000000000000000e+00,6.250000000000000130e-05,0.000000000000000000e+00,6.200000000000000270e-05,8.299999999999999815e-05,0.000000000000000000e+00,4.302564102564102218e-03,4.513846153846153009e-03,4.245641025641025412e-03,4.177435897435897473e-03,4.265128205128205195e-03,1.617499999999999841e-02,9.999999999999999547e-07,1.499999999999999869e-05,0.000000000000000000e+00,0.000000000000000000e+00,0.000000000000000000e+00,0.000000000000000000e+00,3.999999999999999819e-06,3.999999999999999819e-06,1.999999999999999909e-06,3.999999999999999819e-06,3.999999999999999819e-06,8.299999999999999815e-05,0.000000000000000000e+00,0.000000000000000000e+00,0.000000000000000000e+00,0.000000000000000000e+00,0.000000000000000000e+00,0.000000000000000000e+00,0.000000000000000000e+00
0.000000000000000000e+00,7.029999999999998761e-05,0.000000000000000000e+00,6.999999999999999387e-05,8.399999999999999535e-05,0.000000000000000000e+00,4.323589743589742809e-03,4.547179487179486140e-03,4.263589743589742652e-03,4.215897435897435035e-03,4.322564102564102270e-03,4.499999999999999877e-04,9.999999999999999547e-07,1.499999999999999869e-05,0.000000000000000000e+00,0.000000000000000000e+00,0.000000000000000000e+00,0.000000000000000000e+00,3.999999999999999819e-06,3.999999999999999819e-06,1.999999999999999909e-06,3.999999999999999819e-06,3.999999999999999819e-06,8.299999999999999815e-05,0.000000000000000000e+00,0.000000000000000000e+00,0.000000000000000000e+00,0.000000000000000000e+00,0.000000000000000000e+00,0.000000000000000000e+00,0.000000000000000000e+00
0.000000000000000000e+00,7.810000000000000102e-05,0.000000000000000000e+00,7.799999999999999859e-05,8.499999999999999255e-05,0.000000000000000000e+00,4.266153846153845734e-03,4.460512820512819825e-03,4.229743589743588383e-03,4.185128205128204985e-03,4.306153846153845839e-03,4.499999999999999877e-04,9.999999999999999547e-07,1.499999999999999869e-05,0.000000000000000000e+00,0.000000000000000000e+00,0.000000000000000000e+00,0.000000000000000000e+00,3.999999999999999819e-06,3.999999999999999819e-06,1.999999999999999909e-06,3.999999999999999819e-06,3.999999999999999819e-06,8.299999999999999815e-05,0.000000000000000000e+00,0.000000000000000000e+00,0.000000000000000000e+00,0.000000000000000000e+00,0.000000000000000000e+00,0.000000000000000000e+00,0.000000000000000000e+00
0.000000000000000000e+00,8.590000000000000088e-05,0.000000000000000000e+00,8.599999999999998976e-05,8.599999999999998976e-05,0.000000000000000000e+00,4.234358974358973411e-03,4.396410256410255776e-03,4.208717948717947792e-03,4.155897435897435745e-03,4.252307692307692386e-03,4.499999999999999877e-04,9.999999999999999547e-07,1.499999999999999869e-05,0.000000000000000000e+00,0.000000000000000000e+00,0.000000000000000000e+00,0.000000000000000000e+00,3.999999999999999819e-06,3.999999999999999819e-06,1.999999999999999909e-06,3.999999999999999819e-06,3.999999999999999819e-06,8.299999999999999815e-05,0.000000000000000000e+00,0.000000000000000000e+00,0.000000000000000000e+00,0.000000000000000000e+00,0.000000000000000000e+00,0.000000000000000000e+00,0.000000000000000000e+00
0.000000000000000000e+00,9.370000000000000074e-05,0.000000000000000000e+00,9.399999999999999448e-05,8.700000000000000051e-05,0.000000000000000000e+00,4.271282051282051032e-03,4.421025641025640857e-03,4.227692307692307305e-03,4.158974358974358229e-03,4.263076923076922382e-03,1.617499999999999841e-02,9.999999999999999547e-07,1.499999999999999869e-05,0.000000000000000000e+00,0.000000000000000000e+00,0.000000000000000000e+00,0.000000000000000000e+00,3.999999999999999819e-06,3.999999999999999819e-06,1.999999999999999909e-06,3.999999999999999819e-06,3.999999999999999819e-06,8.299999999999999815e-05,0.000000000000000000e+00,0.000000000000000000e+00,0.000000000000000000e+00,0.000000000000000000e+00,0.000000000000000000e+00,0.000000000000000000e+00,0.000000000000000000e+00
0.000000000000000000e+00,1.015000000000000006e-04,0.000000000000000000e+00,1.019999999999999992e-04,8.799999999999999771e-05,0.000000000000000000e+00,4.268717948717947949e-03,4.449743589743588960e-03,4.225128205128205090e-03,4.143589743589743205e-03,4.255897435897435140e-03,4.499999999999999877e-04,9.999999999999999547e-07,1.499999999999999869e-05,0.000000000000000000e+00,0.000000000000000000e+00,0.000000000000000000e+00,0.000000000000000000e+00,3.999999999999999819e-06,3.999999999999999819e-06,1.999999999999999909e-06,3.999999999999999819e-06,3.999999999999999819e-06,8.299999999999999815e-05,0.000000000000000000e+00,0.000000000000000000e+00,0.000000000000000000e+00,0.000000000000000000e+00,0.000000000000000000e+00,0.000000000000000000e+00,0.000000000000000000e+00
0.000000000000000000e+00,1.094000000000000029e-04,0.000000000000000000e+00,1.099999999999999904e-04,8.899999999999999491e-05,0.000000000000000000e+00,4.231794871794871196e-03,4.423589743589743072e-03,4.207179487179486116e-03,4.139487179487178446e-03,4.239999999999999845e-03,4.499999999999999877e-04,9.999999999999999547e-07,1.499999999999999869e-05,0.000000000000000000e+00,0.000000000000000000e+00,0.000000000000000000e+00,0.000000000000000000e+00,3.999999999999999819e-06,3.999999999999999819e-06,1.999999999999999909e-06,3.999999999999999819e-06,3.999999999999999819e-06,8.299999999999999815e-05,0.000000000000000000e+00,0.000000000000000000e+00,0.000000000000000000e+00,0.000000000000000000e+00,0.000000000000000000e+00,0.000000000000000000e+00,0.000000000000000000e+00
0.000000000000000000e+00,1.172000000000000027e-04,0.000000000000000000e+00,1.169999999999999979e-04,8.999999999999999212e-05,0.000000000000000000e+00,4.239487179487178709e-03,4.376410256410255724e-03,4.217948717948717847e-03,4.134871794871795153e-03,4.277948717948718005e-03,4.499999999999999877e-04,9.999999999999999547e-07,1.499999999999999869e-05,0.000000000000000000e+00,0.000000000000000000e+00,0.000000000000000000e+00,0.000000000000000000e+00,3.999999999999999819e-06,3.999999999999999819e-06,1.999999999999999909e-06,3.999999999999999819e-06,3.999999999999999819e-06,8.299999999999999815e-05,0.000000000000000000e+00,0.000000000000000000e+00,0.000000000000000000e+00,0.000000000000000000e+00,0.000000000000000000e+00,0.000000000000000000e+00,0.000000000000000000e+00
0.000000000000000000e+00,1.250000000000000026e-04,0.000000000000000000e+00,1.250000000000000026e-04,9.099999999999998932e-05,0.000000000000000000e+00,4.270256410256409625e-03,4.402564102564102480e-03,4.228717948717947844e-03,4.122051282051281476e-03,4.297435897435896920e-03,1.617499999999999841e-02,9.999999999999999547e-07,1.499999999999999869e-05,0.000000000000000000e+00,0.000000000000000000e+00,0.000000000000000000e+00,0.000000000000000000e+00,3.999999999999999819e-06,3.999999999999999819e-06,1.999999999999999909e-06,3.999999999999999819e-06,3.999999999999999819e-06,8.299999999999999815e-05,0.000000000000000000e+00,0.000000000000000000e+00,0.000000000000000000e+00,0.000000000000000000e+00,0.000000000000000000e+00,0.000000000000000000e+00,0.000000000000000000e+00
0.000000000000000000e+00,1.328000000000000025e-04,0.000000000000000000e+00,1.330000000000000073e-04,9.200000000000000007e-05,0.000000000000000000e+00,4.267692307692307410e-03,4.473333333333332634e-03,4.225128205128205090e-03,4.138461538461537907e-03,4.276410256410255462e-03,4.499999999999999877e-04,9.999999999999999547e-07,1.499999999999999869e-05,0.000000000000000000e+00,0.000000000000000000e+00,0.000000000000000000e+00,0.000000000000000000e+00,3.999999999999999819e-06,3.999999999999999819e-06,1.999999999999999909e-06,3.999999999999999819e-06,3.999999999999999819e-06,8.299999999999999815e-05,0.000000000000000000e+00,0.000000000000000000e+00,0.000000000000000000e+00,0.000000000000000000e+00,0.000000000000000000e+00,0.000000000000000000e+00,0.000000000000000000e+00
0.000000000000000000e+00,1.405999999999999752e-04,0.000000000000000000e+00,1.409999999999999849e-04,9.299999999999999727e-05,0.000000000000000000e+00,4.277948717948718005e-03,4.479487179487178471e-03,4.238974358974358439e-03,4.162564102564102718e-03,4.273846153846153247e-03,4.499999999999999877e-04,9.999999999999999547e-07,1.499999999999999869e-05,0.000000000000000000e+00,0.000000000000000000e+00,0.000000000000000000e+00,0.000000000000000000e+00,3.999999999999999819e-06,3.999999999999999819e-06,1.999999999999999909e-06,3.999999999999999819e-06,3.999999999999999819e-06,8.299999999999999815e-05,0.000000000000000000e+00,0.000000000000000000e+00,0.000000000000000000e+00,0.000000000000000000e+00,0.000000000000000000e+00,0.000000000000000000e+00,0.000000000000000000e+00
0.000000000000000000e+00,1.484000000000000022e-04,0.000000000000000000e+00,1.489999999999999897e-04,9.399999999999999448e-05,0.000000000000000000e+00,4.297948717948717190e-03,4.433333333333332529e-03,4.249743589743588436e-03,4.163076923076922987e-03,4.275384615384614923e-03,4.499999999999999877e-04,9.999999999999999547e-07,1.499999999999999869e-05,0.000000000000000000e+00,0.000000000000000000e+00,0.000000000000000000e+00,0.000000000000000000e+00,3.999999999999999819e-06,3.999999999999999819e-06,1.999999999999999909e-06,3.999999999999999819e-06,3.999999999999999819e-06,8.299999999999999815e-05,0.000000000000000000e+00,0.000000000000000000e+00,0.000000000000000000e+00,0.000000000000000000e+00,0.000000000000000000e+00,0.000000000000000000e+00,0.000000000000000000e+00
0.000000000000000000e+00,1.562000000000000020e-04,0.000000000000000000e+00,1.569999999999999944e-04,9.499999999999999168e-05,0.000000000000000000e+00,4.263076923076922382e-03,4.422564102564102533e-03,4.226666666666665899e-03,4.164615384615383796e-03,4.261538461538460706e-03,1.617499999999999841e-02,9.999999999999999547e-07,1.499999999999999869e-05,0.000000000000000000e+00,0.000000000000000000e+00,0.000000000000000000e+00,0.000000000000000000e+00,3.999999999999999819e-06,3.999999999999999819e-06,1.999999999999999909e-06,3.999999999999999819e-06,3.999999999999999819e-06,8.299999999999999815e-05,0.000000000000000000e+00,0.000000000000000000e+00,0.000000000000000000e+00,0.000000000000000000e+00,0.000000000000000000e+00,0.000000000000000000e+00,0.000000000000000000e+00
0.000000000000000000e+00,1.641000000000000043e-04,0.000000000000000000e+00,1.649999999999999991e-04,9.600000000000000243e-05,0.000000000000000000e+00,4.236923076923075626e-03,4.414871794871795020e-03,4.204102564102563631e-03,4.173333333333332715e-03,4.250256410256409573e-03,4.499999999999999877e-04,9.999999999999999547e-07,1.499999999999999869e-05,0.000000000000000000e+00,0.000000000000000000e+00,0.000000000000000000e+00,0.000000000000000000e+00,3.999999999999999819e-06,3.999999999999999819e-06,1.999999999999999909e-06,3.999999999999999819e-06,3.999999999999999819e-06,8.299999999999999815e-05,0.000000000000000000e+00,0.000000000000000000e+00,0.000000000000000000e+00,0.000000000000000000e+00,0.000000000000000000e+00,0.000000000000000000e+00,0.000000000000000000e+00
0.000000000000000000e+00,1.719000000000000042e-04,0.000000000000000000e+00,1.730000000000000038e-04,9.699999999999999963e-05,0.000000000000000000e+00,4.247692307692307358e-03,4.389743589743588803e-03,4.212820512820512550e-03,4.134358974358973149e-03,4.236923076923075626e-03,4.499999999999999877e-04,9.999999999999999547e-07,1.499999999999999869e-05,0.000000000000000000e+00,0.000000000000000000e+00,0.000000000000000000e+00,0.000000000000000000e+00,3.999999999999999819e-06,3.999999999999999819e-06,1.999999999999999909e-06,3.999999999999999819e-06,3.999999999999999819e-06,8.299999999999999815e-05,0.000000000000000000e+00,0.000000000000000000e+00,0.000000000000000000e+00,0.000000000000000000e+00,0.000000000000000000e+00,0.000000000000000000e+00,0.000000000000000000e+00
0.000000000000000000e+00,1.797000000000000040e-04,0.000000000000000000e+00,1.799999999999999842e-04,9.799999999999999684e-05,0.000000000000000000e+00,4.241025641025640384e-03,4.410769230769230262e-03,4.221025641025640332e-03,4.087179487179486669e-03,4.223076923076922277e-03,4.499999999999999877e-04,9.999999999999999547e-07,1.499999999999999869e-05,0.000000000000000000e+00,0.000000000000000000e+00,0.000000000000000000e+00,0.000000000000000000e+00,3.999999999999999819e-06,3.999999999999999819e-06,1.999999999999999909e-06,3.999999999999999819e-06,3.999999999999999819e-06,8.299999999999999815e-05,0.000000000000000000e+00,0.000000000000000000e+00,0.000000000000000000e+00,0.000000000000000000e+00,0.000000000000000000e+00,0.000000000000000000e+00,0.000000000000000000e+00
0.000000000000000000e+00,1.875000000000000039e-04,0.000000000000000000e+00,1.879999999999999890e-04,9.899999999999999404e-05,0.000000000000000000e+00,4.221025641025640332e-03,4.415897435897435559e-03,4.212820512820512550e-03,4.088205128205128075e-03,4.241538461538460654e-03,1.617499999999999841e-02,9.999999999999999547e-07,1.499999999999999869e-05,0.000000000000000000e+00,0.000000000000000000e+00,0.000000000000000000e+00,0.000000000000000000e+00,3.999999999999999819e-06,3.999999999999999819e-06,1.999999999999999909e-06,3.999999999999999819e-06,3.999999999999999819e-06,8.299999999999999815e-05,0.000000000000000000e+00,0.000000000000000000e+00,0.000000000000000000e+00,0.000000000000000000e+00,0.000000000000000000e+00,0.000000000000000000e+00,0.000000000000000000e+00
0.000000000000000000e+00,1.953000000000000038e-04,0.000000000000000000e+00,1.959999999999999937e-04,9.999999999999999124e-05,0.000000000000000000e+00,4.220512820512820062e-03,4.376923076923075993e-03,4.211794871794871144e-03,4.101025641025640885e-03,4.246666666666665951e-03,4.499999999999999877e-04,9.999999999999999547e-07,1.499999999999999869e-05,0.000000000000000000e+00,0.000000000000000000e+00,0.000000000000000000e+00,0.000000000000000000e+00,3.999999999999999819e-06,3.999999999999999819e-06,1.999999999999999909e-06,3.999999999999999819e-06,3.999999999999999819e-06,8.299999999999999815e-05,0.000000000000000000e+00,0.000000000000000000e+00,0.000000000000000000e+00,0.000000000000000000e+00,0.000000000000000000e+00,0.000000000000000000e+00,0.000000000000000000e+00
0.000000000000000000e+00,2.031000000000000036e-04,0.000000000000000000e+00,2.039999999999999984e-04,1.010000000000000020e-04,0.000000000000000000e+00,4.244102564102563736e-03,4.384615384615383506e-03,4.230769230769230657e-03,4.121025641025640070e-03,4.226666666666665899e-03,4.499999999999999877e-04,9.999999999999999547e-07,1.499999999999999869e-05,0.000000000000000000e+00,0.000000000000000000e+00,0.000000000000000000e+00,0.000000000000000000e+00,3.999999999999999819e-06,3.999999999999999819e-06,1.999999999999999909e-06,3.999999999999999819e-06,3.999999999999999819e-06,8.299999999999999815e-05,0.000000000000000000e+00,0.000000000000000000e+00,0.000000000000000000e+00,0.000000000000000000e+00,0.000000000000000000e+00,0.000000000000000000e+00,0.000000000000000000e+00
0.000000000000000000e+00,2.109000000000000035e-04,0.000000000000000000e+00,2.120000000000000031e-04,1.019999999999999992e-04,0.000000000000000000e+00,4.264615384615384058e-03,4.437435897435897288e-03,4.246153846153845682e-03,4.155897435897435745e-03,4.245128205128205143e-03,4.499999999999999877e-04,9.999999999999999547e-07,1.499999999999999869e-05,0.000000000000000000e+00,0.000000000000000000e+00,0.000000000000000000e+00,0.000000000000000000e+00,3.999999999999999819e-06,3.999999999999999819e-06,1.999999999999999909e-06,3.999999999999999819e-06,3.999999999999999819e-06,8.299999999999999815e-05,0.000000000000000000e+00,0.000000000000000000e+00,0.000000000000000000e+00,0.000000000000000000e+00,0.000000000000000000e+00,0.000000000000000000e+00,0.000000000000000000e+00
0.000000000000000000e+00,2.188000000000000058e-04,0.000000000000000000e+00,2.199999999999999807e-04,1.029999999999999964e-04,0.000000000000000000e+00,4.231282051282050927e-03,4.441538461538461179e-03,4.225641025641025360e-03,4.137948717948717638e-03,4.236923076923075626e-03,1.617499999999999841e-02,9.999999999999999547e-07,1.499999999999999869e-05,0.000000000000000000e+00,0.000000000000000000e+00,0.000000000000000000e+00,0.000000000000000000e+00,3.999999999999999819e-06,3.999999999999999819e-06,1.999999999999999909e-06,3.999999999999999819e-06,3.999999999999999819e-06,8.299999999999999815e-05,0.000000000000000000e+00,0.000000000000000000e+00,0.000000000000000000e+00,0.000000000000000000e+00,0.000000000000000000e+00,0.000000000000000000e+00,0.000000000000000000e+00
0.000000000000000000e+00,2.266000000000000056e-04,0.000000000000000000e+00,2.279999999999999854e-04,1.039999999999999936e-04,0.000000000000000000e+00,4.208717948717947792e-03,4.424102564102563341e-03,4.211282051282050874e-03,4.092307692307691966e-03,4.204615384615383901e-03,4.499999999999999877e-04,9.999999999999999547e-07,1.499999999999999869e-05,0.000000000000000000e+00,0.000000000000000000e+00,0.000000000000000000e+00,0.000000000000000000e+00,3.999999999999999819e-06,3.999999999999999819e-06,1.999999999999999909e-06,3.999999999999999819e-06,3.999999999999999819e-06,8.299999999999999815e-05,0.000000000000000000e+00,0.000000000000000000e+00,0.000000000000000000e+00,0.000000000000000000e+00,0.000000000000000000e+00,0.000000000000000000e+00,0.000000000000000000e+00
0.000000000000000000e+00,2.344000000000000055e-04,0.000000000000000000e+00,2.349999999999999930e-04,1.049999999999999908e-04,0.000000000000000000e+00,4.265641025641025465e-03,4.442564102564102585e-03,4.235384615384614818e-03,4.117948717948717585e-03,4.227179487179486168e-03,4.499999999999999877e-04,9.999999999999999547e-07,1.499999999999999869e-05,0.000000000000000000e+00,0.000000000000000000e+00,0.000000000000000000e+00,0.000000000000000000e+00,3.999999999999999819e-06,3.999999999999999819e-06,1.999999999999999909e-06,3.999999999999999819e-06,3.999999999999999819e-06,8.299999999999999815e-05,0.000000000000000000e+00,0.000000000000000000e+00,0.000000000000000000e+00,0.000000000000000000e+00,0.000000000000000000e+00,0.000000000000000000e+00,0.000000000000000000e+00
0.000000000000000000e+00,2.422000000000000053e-04,0.000000000000000000e+00,2.429999999999999977e-04,1.060000000000000016e-04,0.000000000000000000e+00,4.276923076923075731e-03,4.424615384615383611e-03,4.240512820512820115e-03,4.161538461538460444e-03,4.274358974358973516e-03,4.499999999999999877e-04,9.999999999999999547e-07,1.499999999999999869e-05,0.000000000000000000e+00,0.000000000000000000e+00,0.000000000000000000e+00,0.000000000000000000e+00,3.999999999999999819e-06,3.999999999999999819e-06,1.999999999999999909e-06,3.999999999999999819e-06,3.999999999999999819e-06,8.299999999999999815e-05,0.000000000000000000e+00,0.000000000000000000e+00,0.000000000000000000e+00,0.000000000000000000e+00,0.000000000000000000e+00,0.000000000000000000e+00,0.000000000000000000e+00
0.000000000000000000e+00,2.500000000000000052e-04,0.000000000000000000e+00,2.509999999999999753e-04,1.069999999999999988e-04,0.000000000000000000e+00,4.240512820512820115e-03,4.381025641025640752e-03,4.217948717948717847e-03,4.164102564102563526e-03,4.288205128205127732e-03,1.617499999999999841e-02,9.999999999999999547e-07,1.499999999999999869e-05,0.000000000000000000e+00,0.000000000000000000e+00,0.000000000000000000e+00,0.000000000000000000e+00,3.999999999999999819e-06,3.999999999999999819e-06,1.999999999999999909e-06,3.999999999999999819e-06,3.999999999999999819e-06,8.299999999999999815e-05,0.000000000000000000e+00,0.000000000000000000e+00,0.000000000000000000e+00,0.000000000000000000e+00,0.000000000000000000e+00,0.000000000000000000e+00,0.000000000000000000e+00
0.000000000000000000e+00,2.577999999999999780e-04,0.000000000000000000e+00,2.590000000000000071e-04,1.079999999999999960e-04,0.000000000000000000e+00,4.269743589743588488e-03,4.386153846153845182e-03,4.219487179487178656e-03,4.159487179487178499e-03,4.253333333333332925e-03,4.499999999999999877e-04,9.999999999999999547e-07,1.499999999999999869e-05,0.000000000000000000e+00,0.000000000000000000e+00,0.000000000000000000e+00,0.000000000000000000e+00,3.999999999999999819e-06,3.999999999999999819e-06,1.999999999999999909e-06,3.999999999999999819e-06,3.999999999999999819e-06,8.299999999999999815e-05,0.000000000000000000e+00,0.000000000000000000e+00,0.000000000000000000e+00,0.000000000000000000e+00,0.000000000000000000e+00,0.000000000000000000e+00,0.000000000000000000e+00
0.000000000000000000e+00,2.656000000000000049e-04,0.000000000000000000e+00,2.669999999999999847e-04,1.089999999999999932e-04,0.000000000000000000e+00,4.278974358974358544e-03,4.389230769230768534e-03,4.226153846153845629e-03,4.144615384615383744e-03,4.197435897435897525e-03,4.499999999999999877e-04,9.999999999999999547e-07,1.499999999999999869e-05,0.000000000000000000e+00,0.000000000000000000e+00,0.000000000000000000e+00,0.000000000000000000e+00,3.999999999999999819e-06,3.999999999999999819e-06,1.999999999999999909e-06,3.999999999999999819e-06,3.999999999999999819e-06,8.299999999999999815e-05,0.000000000000000000e+00,0.000000000000000000e+00,0.000000000000000000e+00,0.000000000000000000e+00,0.000000000000000000e+00,0.000000000000000000e+00,0.000000000000000000e+00
0.000000000000000000e+00,2.734999999999999801e-04,0.000000000000000000e+00,2.749999999999999624e-04,1.099999999999999904e-04,0.000000000000000000e+00,4.219487179487178656e-03,4.372307692307690966e-03,4.207179487179486116e-03,4.099487179487178341e-03,4.196410256410256119e-03,4.499999999999999877e-04,9.999999999999999547e-07,1.499999999999999869e-05,0.000000000000000000e+00,0.000000000000000000e+00,0.000000000000000000e+00,0.000000000000000000e+00,3.999999999999999819e-06,3.999999999999999819e-06,1.999999999999999909e-06,3.999999999999999819e-06,3.999999999999999819e-06,8.299999999999999815e-05,0.000000000000000000e+00,0.000000000000000000e+00,0.000000000000000000e+00,0.000000000000000000e+00,0.000000000000000000e+00,0.000000000000000000e+00,0.000000000000000000e+00
0.000000000000000000e+00,2.813000000000000071e-04,0.000000000000000000e+00,2.819999999999999699e-04,1.110000000000000011e-04,0.000000000000000000e+00,4.216923076923076441e-03,4.387692307692307725e-03,4.215897435897435035e-03,4.096923076923076126e-03,4.259999999999999898e-03,1.617499999999999841e-02,9.999999999999999547e-07,1.499999999999999869e-05,0.000000000000000000e+00,0.000000000000000000e+00,0.000000000000000000e+00,0.000000000000000000e+00,3.999999999999999819e-06,3.999999999999999819e-06,1.999999999999999909e-06,3.999999999999999819e-06,3.999999999999999819e-06,8.299999999999999815e-05,9.999999999999999547e-07,6.700000000000000226e-05,3.000000000000000076e-06,3.000000000000000076e-06,1.999999999999999909e-06,3.000000000000000076e-06,3.000000000000000076e-06
0.000000000000000000e+00,2.891000000000000340e-04,0.000000000000000000e+00,2.900000000000000017e-04,1.119999999999999983e-04,0.000000000000000000e+00,4.278461538461538274e-03,4.405128205128204695e-03,4.244615384615384006e-03,4.153333333333332662e-03,4.293846153846153299e-03,4.499999999999999877e-04,9.999999999999999547e-07,1.499999999999999869e-05,0.000000000000000000e+00,0.000000000000000000e+00,0.000000000000000000e+00,0.000000000000000000e+00,3.999999999999999819e-06,3.999999999999999819e-06,1.999999999999999909e-06,3.999999999999999819e-06,3.999999999999999819e-06,8.299999999999999815e-05,9.999999999999999547e-07,6.700000000000000226e-05,3.000000000000000076e-06,3.000000000000000076e-06,1.999999999999999909e-06,3.000000000000000076e-06,3.000000000000000076e-06
0.000000000000000000e+00,2.969000000000000068e-04,0.000000000000000000e+00,2.979999999999999793e-04,1.129999999999999955e-04,0.000000000000000000e+00,4.294358974358973569e-03,4.402051282051281343e-03,4.238461538461538169e-03,4.182051282051280766e-03,4.275384615384614923e-03,4.499999999999999877e-04,9.999999999999999547e-07,1.499999999999999869e-05,0.000000000000000000e+00,0.000000000000000000e+00,0.000000000000000000e+00,0.000000000000000000e+00,3.999999999999999819e-06,3.999999999999999819e-06,1.999999999999999909e-06,3.999999999999999819e-06,3.999999999999999819e-06,8.299999999999999815e-05,9.999999999999999547e-07,6.700000000000000226e-05,3.000000000000000076e-06,3.000000000000000076e-06,1.999999999999999909e-06,3.000000000000000076e-06,3.000000000000000076e-06
0.000000000000000000e+00,3.046999999999999795e-04,0.000000000000000000e+00,3.060000000000000111e-04,1.139999999999999927e-04,0.000000000000000000e+00,4.284102564102562974e-03,4.418461538461537774e-03,4.227179487179486168e-03,4.170769230769230500e-03,4.243589743589742599e-03,4.499999999999999877e-04,9.999999999999999547e-07,1.499999999999999869e-05,0.000000000000000000e+00,0.000000000000000000e+00,0.000000000000000000e+00,0.000000000000000000e+00,3.999999999999999819e-06,3.999999999999999819e-06,1.999999999999999909e-06,3.999999999999999819e-06,3.999999999999999819e-06,8.299999999999999815e-05,9.999999999999999547e-07,6.700000000000000226e-05,3.000000000000000076e-06,3.000000000000000076e-06,1.999999999999999909e-06,3.000000000000000076e-06,3.000000000000000076e-06
0.000000000000000000e+00,3.125000000000000065e-04,0.000000000000000000e+00,3.139999999999999888e-04,1.149999999999999899e-04,0.000000000000000000e+00,4.290769230769229947e-03,4.408717948717948316e-03,4.238461538461538169e-03,4.165128205128204933e-03,4.240512820512820115e-03,1.617499999999999841e-02,9.999999999999999547e-07,1.499999999999999869e-05,0.000000000000000000e+00,0.000000000000000000e+00,0.000000000000000000e+00,0.000000000000000000e+00,3.999999999999999819e-06,3.999999999999999819e-06,1.999999999999999909e-06,3.999999999999999819e-06,3.999999999999999819e-06,8.299999999999999815e-05,9.999999999999999547e-07,6.700000000000000226e-05,3.000000000000000076e-06,3.000000000000000076e-06,1.999999999999999909e-06,3.000000000000000076e-06,3.000000000000000076e-06
0.000000000000000000e+00,3.202999999999999793e-04,0.000000000000000000e+00,3.219999999999999664e-04,1.160000000000000007e-04,0.000000000000000000e+00,4.285641025641025517e-03,4.375384615384615185e-03,4.238461538461538169e-03,4.169230769230768824e-03,4.270256410256409625e-03,4.499999999999999877e-04,9.999999999999999547e-07,1.499999999999999869e-05,0.000000000000000000e+00,0.000000000000000000e+00,0.000000000000000000e+00,0.000000000000000000e+00,3.999999999999999819e-06,3.999999999999999819e-06,1.999999999999999909e-06,3.999999999999999819e-06,3.999999999999999819e-06,8.299999999999999815e-05,9.999999999999999547e-07,6.700000000000000226e-05,3.000000000000000076e-06,3.000000000000000076e-06,1.999999999999999909e-06,3.000000000000000076e-06,3.000000000000000076e-06
0.000000000000000000e+00,3.282000000000000087e-04,0.000000000000000000e+00,3.299999999999999982e-04,1.169999999999999979e-04,0.000000000000000000e+00,4.271794871794871301e-03,4.423076923076922802e-03,4.227179487179486168e-03,4.147692307692307095e-03,4.277435897435896868e-03,4.499999999999999877e-04,9.999999999999999547e-07,1.499999999999999869e-05,0.000000000000000000e+00,0.000000000000000000e+00,0.000000000000000000e+00,0.000000000000000000e+00,3.999999999999999819e-06,3.999999999999999819e-06,1.999999999999999909e-06,3.999999999999999819e-06,3.999999999999999819e-06,8.299999999999999815e-05,9.999999999999999547e-07,6.700000000000000226e-05,3.000000000000000076e-06,3.000000000000000076e-06,1.999999999999999909e-06,3.000000000000000076e-06,3.000000000000000076e-06
0.000000000000000000e+00,3.359999999999999814e-04,0.000000000000000000e+00,3.370000000000000057e-04,1.179999999999999951e-04,0.000000000000000000e+00,4.268205128205127680e-03,4.465641025641025122e-03,4.228717948717947844e-03,4.122051282051281476e-03,4.265128205128205195e-03,4.499999999999999877e-04,9.999999999999999547e-07,1.499999999999999869e-05,0.000000000000000000e+00,0.000000000000000000e+00,0.000000000000000000e+00,0.000000000000000000e+00,3.999999999999999819e-06,3.999999999999999819e-06,1.999999999999999909e-06,3.999999999999999819e-06,3.999999999999999819e-06,8.299999999999999815e-05,9.999999999999999547e-07,6.700000000000000226e-05,3.000000000000000076e-06,3.000000000000000076e-06,1.999999999999999909e-06,3.000000000000000076e-06,3.000000000000000076e-06
0.000000000000000000e+00,3.438000000000000084e-04,0.000000000000000000e+00,3.449999999999999833e-04,1.189999999999999923e-04,0.000000000000000000e+00,4.286666666666666056e-03,4.398974358974357991e-03,4.243076923076922330e-03,4.148205128205127365e-03,4.265128205128205195e-03,1.617499999999999841e-02,9.999999999999999547e-07,1.499999999999999869e-05,0.000000000000000000e+00,0.000000000000000000e+00,0.000000000000000000e+00,0.000000000000000000e+00,3.999999999999999819e-06,3.999999999999999819e-06,1.999999999999999909e-06,3.999999999999999819e-06,3.999999999999999819e-06,8.299999999999999815e-05,9.999999999999999547e-07,6.700000000000000226e-05,3.000000000000000076e-06,3.000000000000000076e-06,1.999999999999999909e-06,3.000000000000000076e-06,3.000000000000000076e-06
0.000000000000000000e+00,3.515999999999999811e-04,0.000000000000000000e+00,3.529999999999999609e-04,1.199999999999999895e-04,0.000000000000000000e+00,4.327692307692307568e-03,4.349743589743588698e-03,4.263076923076922382e-03,4.208717948717947792e-03,4.279999999999999950e-03,4.499999999999999877e-04,9.999999999999999547e-07,1.499999999999999869e-05,0.000000000000000000e+00,0.000000000000000000e+00,0.000000000000000000e+00,0.000000000000000000e+00,3.999999999999999819e-06,3.999999999999999819e-06,1.999999999999999909e-06,3.999999999999999819e-06,3.999999999999999819e-06,8.299999999999999815e-05,9.999999999999999547e-07,6.700000000000000226e-05,3.000000000000000076e-06,3.000000000000000076e-06,1.999999999999999909e-06,3.000000000000000076e-06,3.000000000000000076e-06
0.000000000000000000e+00,3.594000000000000081e-04,0.000000000000000000e+00,3.609999999999999928e-04,1.210000000000000002e-04,0.000000000000000000e+00,4.324102564102563079e-03,4.395384615384615237e-03,4.245641025641025412e-03,4.194871794871794443e-03,4.295384615384614975e-03,4.499999999999999877e-04,9.999999999999999547e-07,1.499999999999999869e-05,0.000000000000000000e+00,0.000000000000000000e+00,0.000000000000000000e+00,0.000000000000000000e+00,3.999999999999999819e-06,3.999999999999999819e-06,1.999999999999999909e-06,3.999999999999999819e-06,3.999999999999999819e-06,8.299999999999999815e-05,9.999999999999999547e-07,6.700000000000000226e-05,3.000000000000000076e-06,3.000000000000000076e-06,1.999999999999999909e-06,3.000000000000000076e-06,3.000000000000000076e-06
0.000000000000000000e+00,3.672000000000000351e-04,0.000000000000000000e+00,3.689999999999999704e-04,1.219999999999999974e-04,0.000000000000000000e+00,4.247692307692307358e-03,4.407692307692307777e-03,4.188205128205127470e-03,4.095384615384615318e-03,4.259999999999999898e-03,4.499999999999999877e-04,9.999999999999999547e-07,1.499999999999999869e-05,0.000000000000000000e+00,0.000000000000000000e+00,0.000000000000000000e+00,0.000000000000000000e+00,3.999999999999999819e-06,3.999999999999999819e-06,1.999999999999999909e-06,3.999999999999999819e-06,3.999999999999999819e-06,8.299999999999999815e-05,9.999999999999999547e-07,6.700000000000000226e-05,3.000000000000000076e-06,3.000000000000000076e-06,1.999999999999999909e-06,3.000000000000000076e-06,3.000000000000000076e-06
0.000000000000000000e+00,3.751000000000000102e-04,0.000000000000000000e+00,3.770000000000000022e-04,1.229999999999999811e-04,0.000000000000000000e+00,4.234871794871794548e-03,4.380000000000000213e-03,4.191794871794871091e-03,4.080512820512820563e-03,4.217435897435897578e-03,1.617499999999999841e-02,9.999999999999999547e-07,1.499999999999999869e-05,0.000000000000000000e+00,0.000000000000000000e+00,0.000000000000000000e+00,0.000000000000000000e+00,3.999999999999999819e-06,3.999999999999999819e-06,1.999999999999999909e-06,3.999999999999999819e-06,3.999999999999999819e-06,8.299999999999999815e-05,9.999999999999999547e-07,6.700000000000000226e-05,3.000000000000000076e-06,3.000000000000000076e-06,1.999999999999999909e-06,3.000000000000000076e-06,3.000000000000000076e-06
0.000000000000000000e+00,3.829000000000000372e-04,0.000000000000000000e+00,3.849999999999999798e-04,1.240000000000000054e-04,0.000000000000000000e+00,4.308205128205127785e-03,4.406153846153845234e-03,4.248205128205127627e-03,4.154871794871794338e-03,4.271282051282051032e-03,4.499999999999999877e-04,9.999999999999999547e-07,1.499999999999999869e-05,0.000000000000000000e+00,0.000000000000000000e+00,0.000000000000000000e+00,0.000000000000000000e+00,3.999999999999999819e-06,3.999999999999999819e-06,1.999999999999999909e-06,3.999999999999999819e-06,3.999999999999999819e-06,8.299999999999999815e-05,9.999999999999999547e-07,6.700000000000000226e-05,3.000000000000000076e-06,3.000000000000000076e-06,1.999999999999999909e-06,3.000000000000000076e-06,3.000000000000000076e-06
0.000000000000000000e+00,3.907000000000000100e-04,0.000000000000000000e+00,3.919999999999999873e-04,1.250000000000000026e-04,0.000000000000000000e+00,4.323076923076922540e-03,4.424615384615383611e-03,4.257435897435897683e-03,4.194358974358973306e-03,4.313333333333333082e-03,4.499999999999999877e-04,9.999999999999999547e-07,1.499999999999999869e-05,0.000000000000000000e+00,0.000000000000000000e+00,0.000000000000000000e+00,0.000000000000000000e+00,3.999999999999999819e-06,3.999999999999999819e-06,1.999999999999999909e-06,3.999999999999999819e-06,3.999999999999999819e-06,8.299999999999999815e-05,9.999999999999999547e-07,6.700000000000000226e-05,3.000000000000000076e-06,3.000000000000000076e-06,1.999999999999999909e-06,3.000000000000000076e-06,3.000000000000000076e-06
0.000000000000000000e+00,3.984999999999999827e-04,0.000000000000000000e+00,3.999999999999999650e-04,1.259999999999999998e-04,0.000000000000000000e+00,4.277435897435896868e-03,4.408205128205128047e-03,4.232820512820512603e-03,4.177435897435897473e-03,4.245128205128205143e-03,4.499999999999999877e-04,9.999999999999999547e-07,1.499999999999999869e-05,0.000000000000000000e+00,0.000000000000000000e+00,0.000000000000000000e+00,0.000000000000000000e+00,3.999999999999999819e-06,3.999999999999999819e-06,1.999999999999999909e-06,3.999999999999999819e-06,3.999999999999999819e-06,8.299999999999999815e-05,9.999999999999999547e-07,6.700000000000000226e-05,3.000000000000000076e-06,3.000000000000000076e-06,1.999999999999999909e-06,3.000000000000000076e-06,3.000000000000000076e-06
0.000000000000000000e+00,4.063000000000000097e-04,0.000000000000000000e+00,4.079999999999999968e-04,1.269999999999999970e-04,0.000000000000000000e+00,4.253333333333332925e-03,4.398974358974357991e-03,4.222564102564102008e-03,4.138461538461537907e-03,4.224102564102563684e-03,2.320000000000000014e-04,9.999999999999999547e-07,1.499999999999999869e-05,0.000000000000000000e+00,0.000000000000000000e+00,0.000000000000000000e+00,0.000000000000000000e+00,3.999999999999999819e-06,3.999999999999999819e-06,1.999999999999999909e-06,3.999999999999999819e-06,3.999999999999999819e-06,8.299999999999999815e-05,9.999999999999999547e-07,6.700000000000000226e-05,3.000000000000000076e-06,3.000000000000000076e-06,1.999999999999999909e-06,3.000000000000000076e-06,3.000000000000000076e-06
0.000000000000000000e+00,4.140999999999999824e-04,0.000000000000000000e+00,4.159999999999999744e-04,0.000000000000000000e+00,0.000000000000000000e+00,4.264102564102562921e-03,4.366666666666666266e-03,4.221025641025640332e-03,4.110769230769230342e-03,4.285128205128205248e-03,4.499999999999999877e-04,9.999999999999999547e-07,1.499999999999999869e-05,0.000000000000000000e+00,0.000000000000000000e+00,0.000000000000000000e+00,0.000000000000000000e+00,3.999999999999999819e-06,3.999999999999999819e-06,1.999999999999999909e-06,3.999999999999999819e-06,3.999999999999999819e-06,8.299999999999999815e-05,9.999999999999999547e-07,6.700000000000000226e-05,3.000000000000000076e-06,3.000000000000000076e-06,1.999999999999999909e-06,3.000000000000000076e-06,3.000000000000000076e-06
0.000000000000000000e+00,4.219000000000000094e-04,0.000000000000000000e+00,4.240000000000000062e-04,9.999999999999999547e-07,0.000000000000000000e+00,4.313846153846153351e-03,4.324615384615383348e-03,4.229743589743588383e-03,4.123076923076922883e-03,4.307692307692307515e-03,4.499999999999999877e-04,9.999999999999999547e-07,1.499999999999999869e-05,0.000000000000000000e+00,0.000000000000000000e+00,0.000000000000000000e+00,0.000000000000000000e+00,3.999999999999999819e-06,3.999999999999999819e-06,1.999999999999999909e-06,3.999999999999999819e-06,3.999999999999999819e-06,8.299999999999999815e-05,9.999999999999999547e-07,6.700000000000000226e-05,3.000000000000000076e-06,3.000000000000000076e-06,1.999999999999999909e-06,3.000000000000000076e-06,3.000000000000000076e-06
0.000000000000000000e+00,4.297999999999999846e-04,0.000000000000000000e+00,4.319999999999999838e-04,1.999999999999999909e-06,0.000000000000000000e+00,4.351794871794870644e-03,4.335897435897435349e-03,4.241025641025640384e-03,4.159999999999999636e-03,4.297948717948717190e-03,1.619400000000000006e-02,9.999999999999999547e-07,1.499999999999999869e-05,0.000000000000000000e+00,0.000000000000000000e+00,0.000000000000000000e+00,0.000000000000000000e+00,3.999999999999999819e-06,3.999999999999999819e-06,1.999999999999999909e-06,3.999999999999999819e-06,3.999999999999999819e-06,8.299999999999999815e-05,9.999999999999999547e-07,6.700000000000000226e-05,3.000000000000000076e-06,3.000000000000000076e-06,1.999999999999999909e-06,3.000000000000000076e-06,3.000000000000000076e-06
0.000000000000000000e+00,4.376000000000000115e-04,0.000000000000000000e+00,4.399999999999999615e-04,3.000000000000000076e-06,0.000000000000000000e+00,4.324102564102563079e-03,4.345641025641024807e-03,4.238461538461538169e-03,4.181025641025640227e-03,4.306153846153845839e-03,4.499999999999999877e-04,9.999999999999999547e-07,1.499999999999999869e-05,0.000000000000000000e+00,0.000000000000000000e+00,0.000000000000000000e+00,0.000000000000000000e+00,3.999999999999999819e-06,3.999999999999999819e-06,1.999999999999999909e-06,3.999999999999999819e-06,3.999999999999999819e-06,8.299999999999999815e-05,9.999999999999999547e-07,6.700000000000000226e-05,3.000000000000000076e-06,3.000000000000000076e-06,1.999999999999999909e-06,3.000000000000000076e-06,3.000000000000000076e-06
0.000000000000000000e+00,4.454000000000000385e-04,0.000000000000000000e+00,4.479999999999999933e-04,3.999999999999999819e-06,0.000000000000000000e+00,4.304102564102563026e-03,4.337435897435897025e-03,4.238461538461538169e-03,4.171282051282050769e-03,4.304615384615383296e-03,1.614499999999999963e-02,9.999999999999999547e-07,1.499999999999999869e-05,0.000000000000000000e+00,0.000000000000000000e+00,0.000000000000000000e+00,0.000000000000000000e+00,3.999999999999999819e-06,3.999999999999999819e-06,1.999999999999999909e-06,3.999999999999999819e-06,3.999999999999999819e-06,8.299999999999999815e-05,9.999999999999999547e-07,6.700000000000000226e-05,3.000000000000000076e-06,3.000000000000000076e-06,1.999999999999999909e-06,3.000000000000000076e-06,3.000000000000000076e-06
0.000000000000000000e+00,4.532000000000000113e-04,0.000000000000000000e+00,4.550000000000000008e-04,4.999999999999999562e-06,0.000000000000000000e+00,4.316923076923075836e-03,4.367692307692307672e-03,4.233846153846153142e-03,4.134358974358973149e-03,4.279999999999999950e-03,4.499999999999999877e-04,9.999999999999999547e-07,1.499999999999999869e-05,0.000000000000000000e+00,0.000000000000000000e+00,0.000000000000000000e+00,0.000000000000000000e+00,3.999999999999999819e-06,3.999999999999999819e-06,1.999999999999999909e-06,3.999999999999999819e-06,3.999999999999999819e-06,8.299999999999999815e-05,9.999999999999999547e-07,6.700000000000000226e-05,3.000000000000000076e-06,3.000000000000000076e-06,1.999999999999999909e-06,3.000000000000000076e-06,3.000000000000000076e-06
0.000000000000000000e+00,4.609999999999999840e-04,0.000000000000000000e+00,4.629999999999999784e-04,6.000000000000000152e-06,0.000000000000000000e+00,4.335384615384615080e-03,4.363589743589742914e-03,4.218974358974358387e-03,4.116410256410255909e-03,4.263589743589742652e-03,2.939999999999999905e-04,9.999999999999999547e-07,1.499999999999999869e-05,0.000000000000000000e+00,0.000000000000000000e+00,0.000000000000000000e+00,0.000000000000000000e+00,3.999999999999999819e-06,3.999999999999999819e-06,1.999999999999999909e-06,3.999999999999999819e-06,3.999999999999999819e-06,8.299999999999999815e-05,9.999999999999999547e-07,6.700000000000000226e-05,3.000000000000000076e-06,3.000000000000000076e-06,1.999999999999999909e-06,3.000000000000000076e-06,3.000000000000000076e-06
0.000000000000000000e+00,4.688000000000000110e-04,0.000000000000000000e+00,4.709999999999999560e-04,6.999999999999999895e-06,0.000000000000000000e+00,4.403076923076922750e-03,4.333333333333333134e-03,4.226153846153845629e-03,4.128205128205128180e-03,4.294358974358973569e-03,4.499999999999999877e-04,9.999999999999999547e-07,1.499999999999999869e-05,0.000000000000000000e+00,0.000000000000000000e+00,0.000000000000000000e+00,0.000000000000000000e+00,3.999999999999999819e-06,3.999999999999999819e-06,1.999999999999999909e-06,3.999999999999999819e-06,3.999999999999999819e-06,8.299999999999999815e-05,9.999999999999999547e-07,6.700000000000000226e-05,3.000000000000000076e-06,3.000000000000000076e-06,1.999999999999999909e-06,3.000000000000000076e-06,3.000000000000000076e-06
0.000000000000000000e+00,4.765999999999999837e-04,0.000000000000000000e+00,4.789999999999999879e-04,7.999999999999999638e-06,0.000000000000000000e+00,4.468205128205127337e-03,4.354358974358973726e-03,4.233333333333332872e-03,4.126153846153845367e-03,4.363589743589742914e-03,4.499999999999999877e-04,9.999999999999999547e-07,1.499999999999999869e-05,0.000000000000000000e+00,0.000000000000000000e+00,0.000000000000000000e+00,0.000000000000000000e+00,3.999999999999999819e-06,3.999999999999999819e-06,1.999999999999999909e-06,3.999999999999999819e-06,3.999999999999999819e-06,8.299999999999999815e-05,9.999999999999999547e-07,6.700000000000000226e-05,3.000000000000000076e-06,3.000000000000000076e-06,1.999999999999999909e-06,3.000000000000000076e-06,3.000000000000000076e-06
0.000000000000000000e+00,4.844999999999999589e-04,0.000000000000000000e+00,4.869999999999999655e-04,9.000000000000000228e-06,0.000000000000000000e+00,4.456410256410255934e-03,4.333846153846153404e-03,4.212307692307692281e-03,4.109230769230768666e-03,4.383076923076922697e-03,1.618700000000000000e-02,9.999999999999999547e-07,1.499999999999999869e-05,0.000000000000000000e+00,0.000000000000000000e+00,0.000000000000000000e+00,0.000000000000000000e+00,3.999999999999999819e-06,3.999999999999999819e-06,1.999999999999999909e-06,3.999999999999999819e-06,3.999999999999999819e-06,8.299999999999999815e-05,9.999999999999999547e-07,6.700000000000000226e-05,3.000000000000000076e-06,3.000000000000000076e-06,1.999999999999999909e-06,3.000000000000000076e-06,3.000000000000000076e-06
0.000000000000000000e+00,4.922999999999999859e-04,0.000000000000000000e+00,4.949999999999999973e-04,9.999999999999999124e-06,0.000000000000000000e+00,4.455897435897435664e-03,4.219999999999999793e-03,4.206153846153845577e-03,4.093846153846152774e-03,4.330769230769230052e-03,4.499999999999999877e-04,9.999999999999999547e-07,1.499999999999999869e-05,0.000000000000000000e+00,0.000000000000000000e+00,0.000000000000000000e+00,0.000000000000000000e+00,3.999999999999999819e-06,3.999999999999999819e-06,1.999999999999999909e-06,3.999999999999999819e-06,3.999999999999999819e-06,8.299999999999999815e-05,9.999999999999999547e-07,6.700000000000000226e-05,3.000000000000000076e-06,3.000000000000000076e-06,1.999999999999999909e-06,3.000000000000000076e-06,3.000000000000000076e-06
0.000000000000000000e+00,5.000999999999999586e-04,0.000000000000000000e+00,5.029999999999999749e-04,1.099999999999999971e-05,0.000000000000000000e+00,4.496410256410256039e-03,4.156923076923076284e-03,4.227179487179486168e-03,4.107179487179485854e-03,4.302564102564102218e-03,1.616799999999999835e-02,9.999999999999999547e-07,1.499999999999999869e-05,0.000000000000000000e+00,0.000000000000000000e+00,0.000000000000000000e+00,0.000000000000000000e+00,3.999999999999999819e-06,3.999999999999999819e-06,1.999999999999999909e-06,3.999999999999999819e-06,3.999999999999999819e-06,8.299999999999999815e-05,9.999999999999999547e-07,6.700000000000000226e-05,3.000000000000000076e-06,3.000000000000000076e-06,1.999999999999999909e-06,3.000000000000000076e-06,3.000000000000000076e-06
0.000000000000000000e+00,5.079000000000000398e-04,0.000000000000000000e+00,5.109999999999999525e-04,1.200000000000000030e-05,0.000000000000000000e+00,4.463076923076922907e-03,4.251794871794871249e-03,4.215384615384614765e-03,4.097435897435897263e-03,4.301025641025640542e-03,4.499999999999999877e-04,9.999999999999999547e-07,1.499999999999999869e-05,0.000000000000000000e+00,0.000000000000000000e+00,0.000000000000000000e+00,0.000000000000000000e+00,3.999999999999999819e-06,3.999999999999999819e-06,1.999999999999999909e-06,3.999999999999999819e-06,3.999999999999999819e-06,8.299999999999999815e-05,9.999999999999999547e-07,6.700000000000000226e-05,3.000000000000000076e-06,3.000000000000000076e-06,1.999999999999999909e-06,3.000000000000000076e-06,3.000000000000000076e-06
0.000000000000000000e+00,5.157000000000000126e-04,0.000000000000000000e+00,5.180000000000000143e-04,1.299999999999999920e-05,0.000000000000000000e+00,4.412820512820512207e-03,4.251282051282050979e-03,4.189230769230768009e-03,4.048717948717948240e-03,4.293846153846153299e-03,4.499999999999999877e-04,9.999999999999999547e-07,1.499999999999999869e-05,0.000000000000000000e+00,0.000000000000000000e+00,0.000000000000000000e+00,0.000000000000000000e+00,3.999999999999999819e-06,3.999999999999999819e-06,1.999999999999999909e-06,3.999999999999999819e-06,3.999999999999999819e-06,8.299999999999999815e-05,9.999999999999999547e-07,6.700000000000000226e-05,3.000000000000000076e-06,3.000000000000000076e-06,1.999999999999999909e-06,3.000000000000000076e-06,3.000000000000000076e-06
0.000000000000000000e+00,5.234999999999999853e-04,0.000000000000000000e+00,5.259999999999999919e-04,1.399999999999999979e-05,0.000000000000000000e+00,4.444615384615383663e-03,3.942564102564102141e-03,4.208205128205127522e-03,4.059487179487179104e-03,4.306153846153845839e-03,4.499999999999999877e-04,9.999999999999999547e-07,1.499999999999999869e-05,0.000000000000000000e+00,0.000000000000000000e+00,0.000000000000000000e+00,0.000000000000000000e+00,3.999999999999999819e-06,3.999999999999999819e-06,1.999999999999999909e-06,3.999999999999999819e-06,3.999999999999999819e-06,8.299999999999999815e-05,9.999999999999999547e-07,6.700000000000000226e-05,3.000000000000000076e-06,3.000000000000000076e-06,1.999999999999999909e-06,3.000000000000000076e-06,3.000000000000000076e-06
0.000000000000000000e+00,5.313000000000000665e-04,0.000000000000000000e+00,5.339999999999999695e-04,1.499999999999999869e-05,0.000000000000000000e+00,4.458461538461537879e-03,3.613333333333332981e-03,4.234358974358973411e-03,4.108205128205128127e-03,4.303589743589742757e-03,1.616799999999999835e-02,9.999999999999999547e-07,1.499999999999999869e-05,0.000000000000000000e+00,0.000000000000000000e+00,0.000000000000000000e+00,0.000000000000000000e+00,3.999999999999999819e-06,3.999999999999999819e-06,1.999999999999999909e-06,3.999999999999999819e-06,3.999999999999999819e-06,8.299999999999999815e-05,9.999999999999999547e-07,6.700000000000000226e-05,3.000000000000000076e-06,3.000000000000000076e-06,1.999999999999999909e-06,3.000000000000000076e-06,3.000000000000000076e-06
0.000000000000000000e+00,5.391999999999999875e-04,0.000000000000000000e+00,5.419999999999999471e-04,1.599999999999999928e-05,0.000000000000000000e+00,4.366153846153845129e-03,3.527692307692307204e-03,4.210769230769230605e-03,4.070256410256409101e-03,4.235897435897435087e-03,0.000000000000000000e+00,9.999999999999999547e-07,1.499999999999999869e-05,0.000000000000000000e+00,0.000000000000000000e+00,0.000000000000000000e+00,0.000000000000000000e+00,3.999999999999999819e-06,3.999999999999999819e-06,1.999999999999999909e-06,3.999999999999999819e-06,3.999999999999999819e-06,8.299999999999999815e-05,9.999999999999999547e-07,6.700000000000000226e-05,3.000000000000000076e-06,3.000000000000000076e-06,1.999999999999999909e-06,3.000000000000000076e-06,3.000000000000000076e-06
0.000000000000000000e+00,5.469999999999999602e-04,0.000000000000000000e+00,5.499999999999999247e-04,1.699999999999999987e-05,0.000000000000000000e+00,4.278461538461538274e-03,3.491794871794871424e-03,4.179999999999999688e-03,3.989230769230769219e-03,4.174871794871794391e-03,0.000000000000000000e+00,9.999999999999999547e-07,1.499999999999999869e-05,0.000000000000000000e+00,0.000000000000000000e+00,0.000000000000000000e+00,0.000000000000000000e+00,3.999999999999999819e-06,3.999999999999999819e-06,1.999999999999999909e-06,3.999999999999999819e-06,3.999999999999999819e-06,8.299999999999999815e-05,9.999999999999999547e-07,6.700000000000000226e-05,3.000000000000000076e-06,3.000000000000000076e-06,1.999999999999999909e-06,3.000000000000000076e-06,3.000000000000000076e-06
0.000000000000000000e+00,5.548000000000000414e-04,0.000000000000000000e+00,5.580000000000000107e-04,1.800000000000000046e-05,0.000000000000000000e+00,4.286666666666666056e-03,3.415897435897435538e-03,4.193846153846153037e-03,3.991794871794871434e-03,4.174871794871794391e-03,0.000000000000000000e+00,9.999999999999999547e-07,1.499999999999999869e-05,0.000000000000000000e+00,0.000000000000000000e+00,0.000000000000000000e+00,0.000000000000000000e+00,3.999999999999999819e-06,3.999999999999999819e-06,1.999999999999999909e-06,3.999999999999999819e-06,3.999999999999999819e-06,8.299999999999999815e-05,9.999999999999999547e-07,6.700000000000000226e-05,3.000000000000000076e-06,3.000000000000000076e-06,1.999999999999999909e-06,3.000000000000000076e-06,3.000000000000000076e-06
0.000000000000000000e+00,5.626000000000000141e-04,0.000000000000000000e+00,5.659999999999999884e-04,1.899999999999999766e-05,0.000000000000000000e+00,4.308205128205127785e-03,3.462051282051281480e-03,4.223076923076922277e-03,4.030769230769230133e-03,4.179999999999999688e-03,0.000000000000000000e+00,9.999999999999999547e-07,1.499999999999999869e-05,0.000000000000000000e+00,0.000000000000000000e+00,0.000000000000000000e+00,0.000000000000000000e+00,3.999999999999999819e-06,3.999999999999999819e-06,1.999999999999999909e-06,3.999999999999999819e-06,3.999999999999999819e-06,8.299999999999999815e-05,9.999999999999999547e-07,6.700000000000000226e-05,3.000000000000000076e-06,3.000000000000000076e-06,1.999999999999999909e-06,3.000000000000000076e-06,3.000000000000000076e-06
0.000000000000000000e+00,5.703999999999999869e-04,0.000000000000000000e+00,5.729999999999999417e-04,1.999999999999999825e-05,0.000000000000000000e+00,4.286153846153845787e-03,3.556923076923076445e-03,4.236410256410255357e-03,4.054871794871794076e-03,4.183076923076923040e-03,0.000000000000000000e+00,9.999999999999999547e-07,1.499999999999999869e-05,0.000000000000000000e+00,0.000000000000000000e+00,0.000000000000000000e+00,0.000000000000000000e+00,3.999999999999999819e-06,3.999999999999999819e-06,1.999999999999999909e-06,3.999999999999999819e-06,3.999999999999999819e-06,8.299999999999999815e-05,9.999999999999999547e-07,6.700000000000000226e-05,3.000000000000000076e-06,3.000000000000000076e-06,1.999999999999999909e-06,3.000000000000000076e-06,3.000000000000000076e-06
0.000000000000000000e+00,5.782000000000000681e-04,0.000000000000000000e+00,5.810000000000000277e-04,2.099999999999999884e-05,0.000000000000000000e+00,4.258974358974358491e-03,3.580512820512820119e-03,4.242564102564102060e-03,4.075897435897435535e-03,4.211794871794871144e-03,0.000000000000000000e+00,9.999999999999999547e-07,1.499999999999999869e-05,0.000000000000000000e+00,0.000000000000000000e+00,0.000000000000000000e+00,0.000000000000000000e+00,3.999999999999999819e-06,3.999999999999999819e-06,1.999999999999999909e-06,3.999999999999999819e-06,3.999999999999999819e-06,8.299999999999999815e-05,9.999999999999999547e-07,6.700000000000000226e-05,3.000000000000000076e-06,3.000000000000000076e-06,1.999999999999999909e-06,3.000000000000000076e-06,3.000000000000000076e-06
0.000000000000000000e+00,5.859999999999999324e-04,0.000000000000000000e+00,5.890000000000000053e-04,2.199999999999999943e-05,0.000000000000000000e+00,4.238461538461538169e-03,3.585641025641025416e-03,4.229743589743588383e-03,4.061025641025640780e-03,4.209230769230768061e-03,0.000000000000000000e+00,9.999999999999999547e-07,1.499999999999999869e-05,0.000000000000000000e+00,0.000000000000000000e+00,0.000000000000000000e+00,0.000000000000000000e+00,3.999999999999999819e-06,3.999999999999999819e-06,1.999999999999999909e-06,3.999999999999999819e-06,3.999999999999999819e-06,8.299999999999999815e-05,9.999999999999999547e-07,6.700000000000000226e-05,3.000000000000000076e-06,3.000000000000000076e-06,1.999999999999999909e-06,3.000000000000000076e-06,3.000000000000000076e-06
0.000000000000000000e+00,5.938999999999999618e-04,0.000000000000000000e+00,5.969999999999999829e-04,2.300000000000000002e-05,0.000000000000000000e+00,4.216410256410255304e-03,3.562051282051281742e-03,4.204615384615383901e-03,4.029230769230768457e-03,4.163589743589743257e-03,0.000000000000000000e+00,9.999999999999999547e-07,1.499999999999999869e-05,0.000000000000000000e+00,0.000000000000000000e+00,0.000000000000000000e+00,0.000000000000000000e+00,3.999999999999999819e-06,3.999999999999999819e-06,1.999999999999999909e-06,3.999999999999999819e-06,3.999999999999999819e-06,8.299999999999999815e-05,9.999999999999999547e-07,6.700000000000000226e-05,3.000000000000000076e-06,3.000000000000000076e-06,1.999999999999999909e-06,3.000000000000000076e-06,3.000000000000000076e-06
0.000000000000000000e+00,6.017000000000000430e-04,0.000000000000000000e+00,6.049999999999999606e-04,2.400000000000000061e-05,0.000000000000000000e+00,4.224615384615383953e-03,3.536410256410255689e-03,4.205641025641025307e-03,4.028717948717948187e-03,4.133333333333332610e-03,0.000000000000000000e+00,9.999999999999999547e-07,1.499999999999999869e-05,0.000000000000000000e+00,0.000000000000000000e+00,0.000000000000000000e+00,0.000000000000000000e+00,3.999999999999999819e-06,3.999999999999999819e-06,1.999999999999999909e-06,3.999999999999999819e-06,3.999999999999999819e-06,8.299999999999999815e-05,9.999999999999999547e-07,6.700000000000000226e-05,3.000000000000000076e-06,3.000000000000000076e-06,1.999999999999999909e-06,3.000000000000000076e-06,3.000000000000000076e-06
0.000000000000000000e+00,6.095000000000000157e-04,0.000000000000000000e+00,6.129999999999999382e-04,2.499999999999999781e-05,0.000000000000000000e+00,4.243076923076922330e-03,3.511794871794871476e-03,4.212307692307692281e-03,4.029743589743589594e-03,4.129230769230768719e-03,0.000000000000000000e+00,9.999999999999999547e-07,1.499999999999999869e-05,0.000000000000000000e+00,0.000000000000000000e+00,0.000000000000000000e+00,0.000000000000000000e+00,3.999999999999999819e-06,3.999999999999999819e-06,1.999999999999999909e-06,3.999999999999999819e-06,3.999999999999999819e-06,8.299999999999999815e-05,9.999999999999999547e-07,6.700000000000000226e-05,3.000000000000000076e-06,3.000000000000000076e-06,1.999999999999999909e-06,3.000000000000000076e-06,3.000000000000000076e-06
0.000000000000000000e+00,6.172999999999999885e-04,0.000000000000000000e+00,6.210000000000000242e-04,2.599999999999999840e-05,0.000000000000000000e+00,4.213846153846153089e-03,3.449743589743589373e-03,4.200512820512820010e-03,4.008717948717948135e-03,4.131794871794870934e-03,0.000000000000000000e+00,9.999999999999999547e-07,1.499999999999999869e-05,0.000000000000000000e+00,0.000000000000000000e+00,0.000000000000000000e+00,0.000000000000000000e+00,3.999999999999999819e-06,3.999999999999999819e-06,1.999999999999999909e-06,3.999999999999999819e-06,3.999999999999999819e-06,8.299999999999999815e-05,9.999999999999999547e-07,6.700000000000000226e-05,3.000000000000000076e-06,3.000000000000000076e-06,1.999999999999999909e-06,3.000000000000000076e-06,3.000000000000000076e-06
0.000000000000000000e+00,6.250999999999999612e-04,0.000000000000000000e+00,6.290000000000000018e-04,2.699999999999999899e-05,0.000000000000000000e+00,4.191794871794871091e-03,3.417435897435896781e-03,4.204615384615383901e-03,4.008717948717948135e-03,4.142564102564102665e-03,0.000000000000000000e+00,9.999999999999999547e-07,1.499999999999999869e-05,0.000000000000000000e+00,0.000000000000000000e+00,0.000000000000000000e+00,0.000000000000000000e+00,3.999999999999999819e-06,3.999999999999999819e-06,1.999999999999999909e-06,3.999999999999999819e-06,3.999999999999999819e-06,8.299999999999999815e-05,9.999999999999999547e-07,6.700000000000000226e-05,3.000000000000000076e-06,3.000000000000000076e-06,1.999999999999999909e-06,3.000000000000000076e-06,3.000000000000000076e-06
0.000000000000000000e+00,6.329000000000000424e-04,0.000000000000000000e+00,6.359999999999999551e-04,2.799999999999999958e-05,0.000000000000000000e+00,4.194871794871794443e-03,3.451282051282050616e-03,4.214871794871794496e-03,4.016923076923076784e-03,4.148205128205127365e-03,0.000000000000000000e+00,9.999999999999999547e-07,1.499999999999999869e-05,0.000000000000000000e+00,0.000000000000000000e+00,0.000000000000000000e+00,0.000000000000000000e+00,3.999999999999999819e-06,3.999999999999999819e-06,1.999999999999999909e-06,3.999999999999999819e-06,3.999999999999999819e-06,8.299999999999999815e-05,9.999999999999999547e-07,6.700000000000000226e-05,3.000000000000000076e-06,3.000000000000000076e-06,1.999999999999999909e-06,3.000000000000000076e-06,3.000000000000000076e-06
0.000000000000000000e+00,6.407000000000000152e-04,0.000000000000000000e+00,6.439999999999999327e-04,2.900000000000000017e-05,0.000000000000000000e+00,4.190256410256410283e-03,3.493846153846153369e-03,4.216410256410255304e-03,4.014358974358973702e-03,4.142051282051281529e-03,0.000000000000000000e+00,9.999999999999999547e-07,1.499999999999999869e-05,0.000000000000000000e+00,0.000000000000000000e+00,0.000000000000000000e+00,0.000000000000000000e+00,3.999999999999999819e-06,3.999999999999999819e-06,1.999999999999999909e-06,3.999999999999999819e-06,3.999999999999999819e-06,8.299999999999999815e-05,9.999999999999999547e-07,6.700000000000000226e-05,3.000000000000000076e-06,3.000000000000000076e-06,1.999999999999999909e-06,3.000000000000000076e-06,3.000000000000000076e-06
0.000000000000000000e+00,6.486000000000000446e-04,0.000000000000000000e+00,6.520000000000000188e-04,2.999999999999999737e-05,0.000000000000000000e+00,4.189743589743589146e-03,3.505641025641025206e-03,4.223589743589743414e-03,4.023076923076922620e-03,4.135897435897435692e-03,0.000000000000000000e+00,9.999999999999999547e-07,1.499999999999999869e-05,0.000000000000000000e+00,0.000000000000000000e+00,0.000000000000000000e+00,0.000000000000000000e+00,3.999999999999999819e-06,3.999999999999999819e-06,1.999999999999999909e-06,3.999999999999999819e-06,3.999999999999999819e-06,8.299999999999999815e-05,9.999999999999999547e-07,6.700000000000000226e-05,3.000000000000000076e-06,3.000000000000000076e-06,1.999999999999999909e-06,3.000000000000000076e-06,3.000000000000000076e-06
0.000000000000000000e+00,6.564000000000000173e-04,0.000000000000000000e+00,6.599999999999999964e-04,3.100000000000000135e-05,0.000000000000000000e+00,4.190256410256410283e-03,3.508205128205127855e-03,4.222564102564102008e-03,4.014358974358973702e-03,4.138974358974358177e-03,0.000000000000000000e+00,9.999999999999999547e-07,1.499999999999999869e-05,0.000000000000000000e+00,0.000000000000000000e+00,0.000000000000000000e+00,0.000000000000000000e+00,3.999999999999999819e-06,3.999999999999999819e-06,1.999999999999999909e-06,3.999999999999999819e-06,3.999999999999999819e-06,8.299999999999999815e-05,9.999999999999999547e-07,6.700000000000000226e-05,3.000000000000000076e-06,3.000000000000000076e-06,1.999999999999999909e-06,3.000000000000000076e-06,3.000000000000000076e-06
0.000000000000000000e+00,6.641999999999999901e-04,0.000000000000000000e+00,6.679999999999999740e-04,3.199999999999999855e-05,0.000000000000000000e+00,4.171282051282050769e-03,3.542051282051281690e-03,4.215897435897435035e-03,4.016410256410255647e-03,4.162564102564102718e-03,0.000000000000000000e+00,9.999999999999999547e-07,1.499999999999999869e-05,0.000000000000000000e+00,0.000000000000000000e+00,0.000000000000000000e+00,0.000000000000000000e+00,3.999999999999999819e-06,3.999999999999999819e-06,1.999999999999999909e-06,3.999999999999999819e-06,3.999999999999999819e-06,8.299999999999999815e-05,9.999999999999999547e-07,6.700000000000000226e-05,3.000000000000000076e-06,3.000000000000000076e-06,1.999999999999999909e-06,3.000000000000000076e-06,3.000000000000000076e-06
0.000000000000000000e+00,6.719999999999999628e-04,0.000000000000000000e+00,6.759999999999999516e-04,3.299999999999999575e-05,0.000000000000000000e+00,4.157948717948717690e-03,3.595897435897435577e-03,4.229230769230768114e-03,4.047692307692306833e-03,4.175897435897435797e-03,0.000000000000000000e+00,9.999999999999999547e-07,1.499999999999999869e-05,0.000000000000000000e+00,0.000000000000000000e+00,0.000000000000000000e+00,0.000000000000000000e+00,3.999999999999999819e-06,3.999999999999999819e-06,1.999999999999999909e-06,3.999999999999999819e-06,3.999999999999999819e-06,8.299999999999999815e-05,9.999999999999999547e-07,6.700000000000000226e-05,3.000000000000000076e-06,3.000000000000000076e-06,1.999999999999999909e-06,3.000000000000000076e-06,3.000000000000000076e-06
0.000000000000000000e+00,6.798000000000000440e-04,0.000000000000000000e+00,6.839999999999999292e-04,3.399999999999999973e-05,0.000000000000000000e+00,4.168717948717947687e-03,3.612820512820512711e-03,4.234358974358973411e-03,4.036923076923076836e-03,4.157435897435897421e-03,0.000000000000000000e+00,9.999999999999999547e-07,1.499999999999999869e-05,0.000000000000000000e+00,0.000000000000000000e+00,0.000000000000000000e+00,0.000000000000000000e+00,3.999999999999999819e-06,3.999999999999999819e-06,1.999999999999999909e-06,3.999999999999999819e-06,3.999999999999999819e-06,8.299999999999999815e-05,9.999999999999999547e-07,6.700000000000000226e-05,3.000000000000000076e-06,3.000000000000000076e-06,1.999999999999999909e-06,3.000000000000000076e-06,3.000000000000000076e-06
0.000000000000000000e+00,6.876000000000000167e-04,0.000000000000000000e+00,6.909999999999999910e-04,3.499999999999999693e-05,0.000000000000000000e+00,4.172307692307692176e-03,3.572307692307691903e-03,4.218974358974358387e-03,3.993846153846153380e-03,4.151794871794870986e-03,0.000000000000000000e+00,9.999999999999999547e-07,1.499999999999999869e-05,0.000000000000000000e+00,0.000000000000000000e+00,0.000000000000000000e+00,0.000000000000000000e+00,3.999999999999999819e-06,3.999999999999999819e-06,1.999999999999999909e-06,3.999999999999999819e-06,3.999999999999999819e-06,8.299999999999999815e-05,9.999999999999999547e-07,6.700000000000000226e-05,3.000000000000000076e-06,3.000000000000000076e-06,1.999999999999999909e-06,3.000000000000000076e-06,3.000000000000000076e-06
0.000000000000000000e+00,6.954000000000000979e-04,0.000000000000000000e+00,6.989999999999999686e-04,3.600000000000000091e-05,0.000000000000000000e+00,4.167179487179486011e-03,3.542564102564101959e-03,4.218974358974358387e-03,3.987179487179486406e-03,4.138974358974358177e-03,0.000000000000000000e+00,9.999999999999999547e-07,1.499999999999999869e-05,0.000000000000000000e+00,0.000000000000000000e+00,0.000000000000000000e+00,0.000000000000000000e+00,3.999999999999999819e-06,3.999999999999999819e-06,1.999999999999999909e-06,3.999999999999999819e-06,3.999999999999999819e-06,8.299999999999999815e-05,9.999999999999999547e-07,6.700000000000000226e-05,3.000000000000000076e-06,3.000000000000000076e-06,1.999999999999999909e-06,3.000000000000000076e-06,3.000000000000000076e-06
0.000000000000000000e+00,7.033000000000000189e-04,0.000000000000000000e+00,7.069999999999999462e-04,3.699999999999999811e-05,0.000000000000000000e+00,4.138974358974358177e-03,3.567179487179486606e-03,4.222051282051280871e-03,3.986153846153845867e-03,4.112307692307692018e-03,0.000000000000000000e+00,9.999999999999999547e-07,1.499999999999999869e-05,0.000000000000000000e+00,0.000000000000000000e+00,0.000000000000000000e+00,0.000000000000000000e+00,3.999999999999999819e-06,3.999999999999999819e-06,1.999999999999999909e-06,3.999999999999999819e-06,3.999999999999999819e-06,8.299999999999999815e-05,9.999999999999999547e-07,6.700000000000000226e-05,3.000000000000000076e-06,3.000000000000000076e-06,1.999999999999999909e-06,3.000000000000000076e-06,3.000000000000000076e-06
0.000000000000000000e+00,7.110999999999999916e-04,0.000000000000000000e+00,7.149999999999999238e-04,3.799999999999999532e-05,0.000000000000000000e+00,4.094871794871794181e-03,3.605641025641025035e-03,4.209230769230768061e-03,3.965128205128204408e-03,4.130769230769230395e-03,0.000000000000000000e+00,9.999999999999999547e-07,1.499999999999999869e-05,0.000000000000000000e+00,0.000000000000000000e+00,0.000000000000000000e+00,0.000000000000000000e+00,3.999999999999999819e-06,3.999999999999999819e-06,1.999999999999999909e-06,3.999999999999999819e-06,3.999999999999999819e-06,8.299999999999999815e-05,9.999999999999999547e-07,6.700000000000000226e-05,3.000000000000000076e-06,3.000000000000000076e-06,1.999999999999999909e-06,3.000000000000000076e-06,3.000000000000000076e-06
0.000000000000000000e+00,7.189000000000000728e-04,0.000000000000000000e+00,7.230000000000000098e-04,3.899999999999999929e-05,0.000000000000000000e+00,4.106153846153845315e-03,3.603589743589743089e-03,4.221538461538460602e-03,3.983076923076922515e-03,4.166666666666665741e-03,0.000000000000000000e+00,9.999999999999999547e-07,1.499999999999999869e-05,0.000000000000000000e+00,0.000000000000000000e+00,0.000000000000000000e+00,0.000000000000000000e+00,3.999999999999999819e-06,3.999999999999999819e-06,1.999999999999999909e-06,3.999999999999999819e-06,3.999999999999999819e-06,8.299999999999999815e-05,9.999999999999999547e-07,6.700000000000000226e-05,3.000000000000000076e-06,3.000000000000000076e-06,1.999999999999999909e-06,3.000000000000000076e-06,3.000000000000000076e-06
0.000000000000000000e+00,7.267000000000000456e-04,0.000000000000000000e+00,7.309999999999999875e-04,3.999999999999999650e-05,0.000000000000000000e+00,4.139999999999999583e-03,3.582564102564102064e-03,4.257435897435897683e-03,4.009230769230769272e-03,4.156923076923076284e-03,0.000000000000000000e+00,9.999999999999999547e-07,1.499999999999999869e-05,0.000000000000000000e+00,0.000000000000000000e+00,0.000000000000000000e+00,0.000000000000000000e+00,3.999999999999999819e-06,3.999999999999999819e-06,1.999999999999999909e-06,3.999999999999999819e-06,3.999999999999999819e-06,8.299999999999999815e-05,9.999999999999999547e-07,6.700000000000000226e-05,3.000000000000000076e-06,3.000000000000000076e-06,1.999999999999999909e-06,3.000000000000000076e-06,3.000000000000000076e-06
0.000000000000000000e+00,7.345000000000000183e-04,0.000000000000000000e+00,7.389999999999999651e-04,4.100000000000000047e-05,0.000000000000000000e+00,4.147179487179485959e-03,3.593333333333332928e-03,4.258974358974358491e-03,3.990256410256409758e-03,4.132820512820512340e-03,0.000000000000000000e+00,9.999999999999999547e-07,1.499999999999999869e-05,0.000000000000000000e+00,0.000000000000000000e+00,0.000000000000000000e+00,0.000000000000000000e+00,3.999999999999999819e-06,3.999999999999999819e-06,1.999999999999999909e-06,3.999999999999999819e-06,3.999999999999999819e-06,8.299999999999999815e-05,9.999999999999999547e-07,6.700000000000000226e-05,3.000000000000000076e-06,3.000000000000000076e-06,1.999999999999999909e-06,3.000000000000000076e-06,3.000000000000000076e-06
0.000000000000000000e+00,7.422999999999999911e-04,0.000000000000000000e+00,7.469999999999999427e-04,4.199999999999999768e-05,0.000000000000000000e+00,4.124102564102563422e-03,3.612820512820512711e-03,4.239999999999999845e-03,3.971794871794871382e-03,4.131282051282050664e-03,0.000000000000000000e+00,9.999999999999999547e-07,1.499999999999999869e-05,0.000000000000000000e+00,0.000000000000000000e+00,0.000000000000000000e+00,0.000000000000000000e+00,3.999999999999999819e-06,3.999999999999999819e-06,1.999999999999999909e-06,3.999999999999999819e-06,3.999999999999999819e-06,8.299999999999999815e-05,9.999999999999999547e-07,6.700000000000000226e-05,3.000000000000000076e-06,3.000000000000000076e-06,1.999999999999999909e-06,3.000000000000000076e-06,3.000000000000000076e-06
0.000000000000000000e+00,7.502000000000000205e-04,0.000000000000000000e+00,7.540000000000000044e-04,4.299999999999999488e-05,0.000000000000000000e+00,4.091282051282050559e-03,3.605641025641025035e-03,4.266153846153845734e-03,3.959487179487178841e-03,4.148717948717948502e-03,0.000000000000000000e+00,9.999999999999999547e-07,1.499999999999999869e-05,0.000000000000000000e+00,0.000000000000000000e+00,0.000000000000000000e+00,0.000000000000000000e+00,3.999999999999999819e-06,3.999999999999999819e-06,1.999999999999999909e-06,3.999999999999999819e-06,3.999999999999999819e-06,8.299999999999999815e-05,9.999999999999999547e-07,6.700000000000000226e-05,3.000000000000000076e-06,3.000000000000000076e-06,1.999999999999999909e-06,3.000000000000000076e-06,3.000000000000000076e-06
0.000000000000000000e+00,7.579999999999999932e-04,0.000000000000000000e+00,7.619999999999999820e-04,4.399999999999999886e-05,0.000000000000000000e+00,4.090256410256409153e-03,3.596923076923076550e-03,4.303076923076922487e-03,3.950769230769229923e-03,4.187692307692307200e-03,0.000000000000000000e+00,9.999999999999999547e-07,1.499999999999999869e-05,0.000000000000000000e+00,0.000000000000000000e+00,0.000000000000000000e+00,0.000000000000000000e+00,3.999999999999999819e-06,3.999999999999999819e-06,1.999999999999999909e-06,3.999999999999999819e-06,3.999999999999999819e-06,8.299999999999999815e-05,9.999999999999999547e-07,6.700000000000000226e-05,3.000000000000000076e-06,3.000000000000000076e-06,1.999999999999999909e-06,3.000000000000000076e-06,3.000000000000000076e-06
0.000000000000000000e+00,7.658000000000000744e-04,0.000000000000000000e+00,7.699999999999999597e-04,4.499999999999999606e-05,0.000000000000000000e+00,4.098974358974358072e-03,3.609743589743589359e-03,4.285641025641025517e-03,3.966153846153845815e-03,4.210769230769230605e-03,0.000000000000000000e+00,9.999999999999999547e-07,1.499999999999999869e-05,0.000000000000000000e+00,0.000000000000000000e+00,0.000000000000000000e+00,0.000000000000000000e+00,3.999999999999999819e-06,3.999999999999999819e-06,1.999999999999999909e-06,3.999999999999999819e-06,3.999999999999999819e-06,8.299999999999999815e-05,9.999999999999999547e-07,6.700000000000000226e-05,3.000000000000000076e-06,3.000000000000000076e-06,1.999999999999999909e-06,3.000000000000000076e-06,3.000000000000000076e-06
0.000000000000000000e+00,7.735999999999999387e-04,0.000000000000000000e+00,7.779999999999999373e-04,4.600000000000000004e-05,0.000000000000000000e+00,4.088717948717948344e-03,3.611282051282050602e-03,4.248717948717947897e-03,3.965641025641025545e-03,4.192820512820512498e-03,0.000000000000000000e+00,9.999999999999999547e-07,1.499999999999999869e-05,0.000000000000000000e+00,0.000000000000000000e+00,0.000000000000000000e+00,0.000000000000000000e+00,3.999999999999999819e-06,3.999999999999999819e-06,1.999999999999999909e-06,3.999999999999999819e-06,3.999999999999999819e-06,8.299999999999999815e-05,9.999999999999999547e-07,6.700000000000000226e-05,3.000000000000000076e-06,3.000000000000000076e-06,1.999999999999999909e-06,3.000000000000000076e-06,3.000000000000000076e-06
0.000000000000000000e+00,7.814000000000000199e-04,0.000000000000000000e+00,7.859999999999999149e-04,4.699999999999999724e-05,0.000000000000000000e+00,4.097948717948717533e-03,3.596923076923076550e-03,4.235897435897435087e-03,3.943076923076922410e-03,4.159999999999999636e-03,0.000000000000000000e+00,9.999999999999999547e-07,1.499999999999999869e-05,0.000000000000000000e+00,0.000000000000000000e+00,0.000000000000000000e+00,0.000000000000000000e+00,3.999999999999999819e-06,3.999999999999999819e-06,1.999999999999999909e-06,3.999999999999999819e-06,3.999999999999999819e-06,8.299999999999999815e-05,9.999999999999999547e-07,4.199999999999999768e-05,3.000000000000000076e-06,0.000000000000000000e+00,1.999999999999999909e-06,3.000000000000000076e-06,3.000000000000000076e-06
0.000000000000000000e+00,7.891999999999999927e-04,0.000000000000000000e+00,7.940000000000000009e-04,4.800000000000000122e-05,0.000000000000000000e+00,4.140512820512819853e-03,3.613333333333332981e-03,4.223589743589743414e-03,3.974871794871793866e-03,4.149230769230768771e-03,0.000000000000000000e+00,9.999999999999999547e-07,1.499999999999999869e-05,0.000000000000000000e+00,0.000000000000000000e+00,0.000000000000000000e+00,0.000000000000000000e+00,3.999999999999999819e-06,3.999999999999999819e-06,1.999999999999999909e-06,3.999999999999999819e-06,3.999999999999999819e-06,8.299999999999999815e-05,9.999999999999999547e-07,4.199999999999999768e-05,3.000000000000000076e-06,0.000000000000000000e+00,1.999999999999999909e-06,3.000000000000000076e-06,3.000000000000000076e-06
0.000000000000000000e+00,7.969999999999999654e-04,0.000000000000000000e+00,8.019999999999999785e-04,4.899999999999999842e-05,0.000000000000000000e+00,4.151282051282050717e-03,3.634358974358974006e-03,4.184102564102563579e-03,3.991794871794871434e-03,4.155897435897435745e-03,0.000000000000000000e+00,9.999999999999999547e-07,1.499999999999999869e-05,0.000000000000000000e+00,0.000000000000000000e+00,0.000000000000000000e+00,0.000000000000000000e+00,3.999999999999999819e-06,3.999999999999999819e-06,1.999999999999999909e-06,3.999999999999999819e-06,3.999999999999999819e-06,8.299999999999999815e-05,9.999999999999999547e-07,4.199999999999999768e-05,3.000000000000000076e-06,0.000000000000000000e+00,1.999999999999999909e-06,3.000000000000000076e-06,3.000000000000000076e-06
0.000000000000000000e+00,8.049000000000001032e-04,0.000000000000000000e+00,8.089999999999999318e-04,4.999999999999999562e-05,0.000000000000000000e+00,4.141025641025640122e-03,3.630769230769230384e-03,4.153333333333332662e-03,3.934871794871794629e-03,4.136923076923076231e-03,0.000000000000000000e+00,9.999999999999999547e-07,1.499999999999999869e-05,0.000000000000000000e+00,0.000000000000000000e+00,0.000000000000000000e+00,0.000000000000000000e+00,3.999999999999999819e-06,3.999999999999999819e-06,1.999999999999999909e-06,3.999999999999999819e-06,3.999999999999999819e-06,8.299999999999999815e-05,9.999999999999999547e-07,4.199999999999999768e-05,3.000000000000000076e-06,0.000000000000000000e+00,1.999999999999999909e-06,3.000000000000000076e-06,3.000000000000000076e-06
0.000000000000000000e+00,8.126999999999999676e-04,0.000000000000000000e+00,8.169999999999999095e-04,5.099999999999999960e-05,0.000000000000000000e+00,4.144615384615383744e-03,3.639999999999999573e-03,4.158974358974358229e-03,3.940512820512820195e-03,4.111794871794870881e-03,0.000000000000000000e+00,9.999999999999999547e-07,1.499999999999999869e-05,0.000000000000000000e+00,0.000000000000000000e+00,0.000000000000000000e+00,0.000000000000000000e+00,3.999999999999999819e-06,3.999999999999999819e-06,1.999999999999999909e-06,3.999999999999999819e-06,3.999999999999999819e-06,8.299999999999999815e-05,9.999999999999999547e-07,4.199999999999999768e-05,3.000000000000000076e-06,0.000000000000000000e+00,1.999999999999999909e-06,3.000000000000000076e-06,3.000000000000000076e-06
0.000000000000000000e+00,8.204999999999999403e-04,0.000000000000000000e+00,8.249999999999999955e-04,5.199999999999999680e-05,0.000000000000000000e+00,4.125641025641025098e-03,3.645641025641025140e-03,4.165128205128204933e-03,3.984102564102563922e-03,4.082564102564101641e-03,0.000000000000000000e+00,9.999999999999999547e-07,1.499999999999999869e-05,0.000000000000000000e+00,0.000000000000000000e+00,0.000000000000000000e+00,0.000000000000000000e+00,3.999999999999999819e-06,3.999999999999999819e-06,1.999999999999999909e-06,3.999999999999999819e-06,3.999999999999999819e-06,8.299999999999999815e-05,9.999999999999999547e-07,4.199999999999999768e-05,3.000000000000000076e-06,0.000000000000000000e+00,1.999999999999999909e-06,3.000000000000000076e-06,3.000000000000000076e-06
0.000000000000000000e+00,8.283000000000000215e-04,0.000000000000000000e+00,8.329999999999999731e-04,5.300000000000000078e-05,0.000000000000000000e+00,4.128717948717948449e-03,3.616923076923076602e-03,4.159999999999999636e-03,3.974358974358973597e-03,4.048717948717948240e-03,0.000000000000000000e+00,9.999999999999999547e-07,1.499999999999999869e-05,0.000000000000000000e+00,0.000000000000000000e+00,0.000000000000000000e+00,0.000000000000000000e+00,3.999999999999999819e-06,3.999999999999999819e-06,1.999999999999999909e-06,3.999999999999999819e-06,3.999999999999999819e-06,8.299999999999999815e-05,9.999999999999999547e-07,4.199999999999999768e-05,3.000000000000000076e-06,0.000000000000000000e+00,1.999999999999999909e-06,3.000000000000000076e-06,3.000000000000000076e-06
0.000000000000000000e+00,8.360999999999999942e-04,0.000000000000000000e+00,8.409999999999999507e-04,5.399999999999999798e-05,0.000000000000000000e+00,4.155897435897435745e-03,3.598974358974358061e-03,4.160512820512819905e-03,3.971794871794871382e-03,4.067179487179486616e-03,0.000000000000000000e+00,9.999999999999999547e-07,1.499999999999999869e-05,0.000000000000000000e+00,0.000000000000000000e+00,0.000000000000000000e+00,0.000000000000000000e+00,3.999999999999999819e-06,3.999999999999999819e-06,1.999999999999999909e-06,3.999999999999999819e-06,3.999999999999999819e-06,8.299999999999999815e-05,9.999999999999999547e-07,4.199999999999999768e-05,3.000000000000000076e-06,0.000000000000000000e+00,1.999999999999999909e-06,3.000000000000000076e-06,3.000000000000000076e-06
0.000000000000000000e+00,8.439000000000000754e-04,0.000000000000000000e+00,8.489999999999999283e-04,5.499999999999999518e-05,0.000000000000000000e+00,4.133846153846152879e-03,3.614358974358973953e-03,4.152307692307692123e-03,3.966153846153845815e-03,4.090769230769230290e-03,0.000000000000000000e+00,9.999999999999999547e-07,1.499999999999999869e-05,0.000000000000000000e+00,0.000000000000000000e+00,0.000000000000000000e+00,0.000000000000000000e+00,3.999999999999999819e-06,3.999999999999999819e-06,1.999999999999999909e-06,3.999999999999999819e-06,3.999999999999999819e-06,8.299999999999999815e-05,9.999999999999999547e-07,4.199999999999999768e-05,3.000000000000000076e-06,0.000000000000000000e+00,1.999999999999999909e-06,3.000000000000000076e-06,3.000000000000000076e-06
0.000000000000000000e+00,8.517000000000000482e-04,0.000000000000000000e+00,8.570000000000000144e-04,5.599999999999999916e-05,0.000000000000000000e+00,4.090256410256409153e-03,3.648717948717948058e-03,4.138974358974358177e-03,3.914871794871794576e-03,4.059999999999999373e-03,0.000000000000000000e+00,9.999999999999999547e-07,1.499999999999999869e-05,0.000000000000000000e+00,0.000000000000000000e+00,0.000000000000000000e+00,0.000000000000000000e+00,3.999999999999999819e-06,3.999999999999999819e-06,1.999999999999999909e-06,3.999999999999999819e-06,3.999999999999999819e-06,8.299999999999999815e-05,9.999999999999999547e-07,4.199999999999999768e-05,3.000000000000000076e-06,0.000000000000000000e+00,1.999999999999999909e-06,3.000000000000000076e-06,3.000000000000000076e-06
0.000000000000000000e+00,8.595999999999999691e-04,0.000000000000000000e+00,8.649999999999999920e-04,5.699999999999999636e-05,0.000000000000000000e+00,4.082051282051281371e-03,3.672307692307691732e-03,4.139487179487178446e-03,3.885641025641025335e-03,4.003076923076922568e-03,0.000000000000000000e+00,9.999999999999999547e-07,1.499999999999999869e-05,0.000000000000000000e+00,0.000000000000000000e+00,0.000000000000000000e+00,0.000000000000000000e+00,3.999999999999999819e-06,3.999999999999999819e-06,1.999999999999999909e-06,3.999999999999999819e-06,3.999999999999999819e-06,8.299999999999999815e-05,9.999999999999999547e-07,4.199999999999999768e-05,3.000000000000000076e-06,0.000000000000000000e+00,1.999999999999999909e-06,3.000000000000000076e-06,3.000000000000000076e-06
0.000000000000000000e+00,8.674000000000000503e-04,0.000000000000000000e+00,8.719999999999999453e-04,5.800000000000000034e-05,0.000000000000000000e+00,4.088717948717948344e-03,3.684102564102564002e-03,4.143589743589743205e-03,3.919487179487178737e-03,3.991794871794871434e-03,0.000000000000000000e+00,9.999999999999999547e-07,1.499999999999999869e-05,0.000000000000000000e+00,0.000000000000000000e+00,0.000000000000000000e+00,0.000000000000000000e+00,3.999999999999999819e-06,3.999999999999999819e-06,1.999999999999999909e-06,3.999999999999999819e-06,3.999999999999999819e-06,8.299999999999999815e-05,9.999999999999999547e-07,4.199999999999999768e-05,3.000000000000000076e-06,0.000000000000000000e+00,1.999999999999999909e-06,3.000000000000000076e-06,3.000000000000000076e-06
0.000000000000000000e+00,8.752000000000000231e-04,0.000000000000000000e+00,8.799999999999999229e-04,5.899999999999999754e-05,0.000000000000000000e+00,4.106153846153845315e-03,3.711282051282050864e-03,4.149743589743589041e-03,3.963589743589742732e-03,4.048717948717948240e-03,0.000000000000000000e+00,9.999999999999999547e-07,1.499999999999999869e-05,0.000000000000000000e+00,0.000000000000000000e+00,0.000000000000000000e+00,0.000000000000000000e+00,3.999999999999999819e-06,3.999999999999999819e-06,1.999999999999999909e-06,3.999999999999999819e-06,3.999999999999999819e-06,8.299999999999999815e-05,9.999999999999999547e-07,4.199999999999999768e-05,3.000000000000000076e-06,0.000000000000000000e+00,1.999999999999999909e-06,3.000000000000000076e-06,3.000000000000000076e-06
0.000000000000000000e+00,8.829999999999999958e-04,0.000000000000000000e+00,8.880000000000000089e-04,5.999999999999999474e-05,0.000000000000000000e+00,4.143076923076922935e-03,3.731282051282050483e-03,4.156410256410256014e-03,3.979487179487178894e-03,4.083076923076922778e-03,0.000000000000000000e+00,9.999999999999999547e-07,1.499999999999999869e-05,0.000000000000000000e+00,0.000000000000000000e+00,0.000000000000000000e+00,0.000000000000000000e+00,3.999999999999999819e-06,3.999999999999999819e-06,1.999999999999999909e-06,3.999999999999999819e-06,3.999999999999999819e-06,8.299999999999999815e-05,9.999999999999999547e-07,4.199999999999999768e-05,3.000000000000000076e-06,0.000000000000000000e+00,1.999999999999999909e-06,3.000000000000000076e-06,3.000000000000000076e-06
0.000000000000000000e+00,8.908000000000000770e-04,0.000000000000000000e+00,8.959999999999999866e-04,6.099999999999999872e-05,0.000000000000000000e+00,4.142051282051281529e-03,3.730256410256409510e-03,4.148717948717948502e-03,3.965641025641025545e-03,4.065128205128204671e-03,0.000000000000000000e+00,9.999999999999999547e-07,1.499999999999999869e-05,0.000000000000000000e+00,0.000000000000000000e+00,0.000000000000000000e+00,0.000000000000000000e+00,3.999999999999999819e-06,3.999999999999999819e-06,1.999999999999999909e-06,3.999999999999999819e-06,3.999999999999999819e-06,8.299999999999999815e-05,9.999999999999999547e-07,4.199999999999999768e-05,3.000000000000000076e-06,0.000000000000000000e+00,1.999999999999999909e-06,3.000000000000000076e-06,3.000000000000000076e-06
0.000000000000000000e+00,8.985999999999999413e-04,0.000000000000000000e+00,9.039999999999999642e-04,6.200000000000000270e-05,0.000000000000000000e+00,4.102564102564102561e-03,3.749230769230769023e-03,4.132820512820512340e-03,3.949743589743589384e-03,4.056923076923076889e-03,0.000000000000000000e+00,9.999999999999999547e-07,1.499999999999999869e-05,0.000000000000000000e+00,0.000000000000000000e+00,0.000000000000000000e+00,0.000000000000000000e+00,3.999999999999999819e-06,3.999999999999999819e-06,1.999999999999999909e-06,3.999999999999999819e-06,3.999999999999999819e-06,8.299999999999999815e-05,9.999999999999999547e-07,4.199999999999999768e-05,3.000000000000000076e-06,0.000000000000000000e+00,1.999999999999999909e-06,3.000000000000000076e-06,3.000000000000000076e-06
0.000000000000000000e+00,9.064000000000000225e-04,0.000000000000000000e+00,9.119999999999999418e-04,6.299999999999999990e-05,0.000000000000000000e+00,4.096923076923076126e-03,3.791282051282050640e-03,4.133333333333332610e-03,3.944102564102563817e-03,4.058461538461537697e-03,0.000000000000000000e+00,9.999999999999999547e-07,1.499999999999999869e-05,0.000000000000000000e+00,0.000000000000000000e+00,0.000000000000000000e+00,0.000000000000000000e+00,3.999999999999999819e-06,3.999999999999999819e-06,1.999999999999999909e-06,3.999999999999999819e-06,3.999999999999999819e-06,8.299999999999999815e-05,9.999999999999999547e-07,4.199999999999999768e-05,3.000000000000000076e-06,0.000000000000000000e+00,1.999999999999999909e-06,3.000000000000000076e-06,3.000000000000000076e-06
0.000000000000000000e+00,9.143000000000000519e-04,0.000000000000000000e+00,9.199999999999999194e-04,6.399999999999999710e-05,0.000000000000000000e+00,4.138461538461537907e-03,3.810769230769230423e-03,4.157435897435897421e-03,3.949230769230769114e-03,4.053333333333333267e-03,4.499999999999999877e-04,9.999999999999999547e-07,1.499999999999999869e-05,0.000000000000000000e+00,0.000000000000000000e+00,0.000000000000000000e+00,0.000000000000000000e+00,3.999999999999999819e-06,3.999999999999999819e-06,1.999999999999999909e-06,3.999999999999999819e-06,3.999999999999999819e-06,8.299999999999999815e-05,9.999999999999999547e-07,4.199999999999999768e-05,3.000000000000000076e-06,0.000000000000000000e+00,1.999999999999999909e-06,3.000000000000000076e-06,3.000000000000000076e-06
0.000000000000000000e+00,9.221000000000000247e-04,0.000000000000000000e+00,9.280000000000000054e-04,6.499999999999999431e-05,0.000000000000000000e+00,4.181025641025640227e-03,3.810769230769230423e-03,4.169230769230768824e-03,3.967179487179486354e-03,4.069743589743588831e-03,4.499999999999999877e-04,9.999999999999999547e-07,1.499999999999999869e-05,0.000000000000000000e+00,0.000000000000000000e+00,0.000000000000000000e+00,0.000000000000000000e+00,3.999999999999999819e-06,3.999999999999999819e-06,1.999999999999999909e-06,3.999999999999999819e-06,3.999999999999999819e-06,8.299999999999999815e-05,9.999999999999999547e-07,4.199999999999999768e-05,3.000000000000000076e-06,0.000000000000000000e+00,1.999999999999999909e-06,3.000000000000000076e-06,3.000000000000000076e-06
0.000000000000000000e+00,9.298999999999999974e-04,0.000000000000000000e+00,9.349999999999999587e-04,6.599999999999999151e-05,0.000000000000000000e+00,4.164615384615383796e-03,3.819999999999999177e-03,4.155897435897435745e-03,3.967179487179486354e-03,4.095384615384615318e-03,1.617599999999999941e-02,9.999999999999999547e-07,1.499999999999999869e-05,0.000000000000000000e+00,0.000000000000000000e+00,0.000000000000000000e+00,0.000000000000000000e+00,3.999999999999999819e-06,3.999999999999999819e-06,1.999999999999999909e-06,3.999999999999999819e-06,3.999999999999999819e-06,8.299999999999999815e-05,9.999999999999999547e-07,4.199999999999999768e-05,3.000000000000000076e-06,0.000000000000000000e+00,1.999999999999999909e-06,3.000000000000000076e-06,3.000000000000000076e-06
0.000000000000000000e+00,9.376999999999999702e-04,0.000000000000000000e+00,9.429999999999999364e-04,6.700000000000000226e-05,0.000000000000000000e+00,4.108205128205128127e-03,3.819999999999999177e-03,4.151282051282050717e-03,3.950769230769229923e-03,4.086153846153845262e-03,4.499999999999999877e-04,9.999999999999999547e-07,1.499999999999999869e-05,0.000000000000000000e+00,0.000000000000000000e+00,0.000000000000000000e+00,0.000000000000000000e+00,3.999999999999999819e-06,3.999999999999999819e-06,1.999999999999999909e-06,3.999999999999999819e-06,3.999999999999999819e-06,8.299999999999999815e-05,9.999999999999999547e-07,4.199999999999999768e-05,3.000000000000000076e-06,0.000000000000000000e+00,1.999999999999999909e-06,3.000000000000000076e-06,3.000000000000000076e-06
0.000000000000000000e+00,9.454999999999999429e-04,0.000000000000000000e+00,9.509999999999999140e-04,6.799999999999999946e-05,0.000000000000000000e+00,4.108205128205128127e-03,3.829230769230768799e-03,4.165641025641025202e-03,3.953333333333333005e-03,4.059487179487179104e-03,1.617000000000000035e-02,9.999999999999999547e-07,1.499999999999999869e-05,0.000000000000000000e+00,0.000000000000000000e+00,0.000000000000000000e+00,0.000000000000000000e+00,3.999999999999999819e-06,3.999999999999999819e-06,1.999999999999999909e-06,3.999999999999999819e-06,3.999999999999999819e-06,8.299999999999999815e-05,9.999999999999999547e-07,4.199999999999999768e-05,3.000000000000000076e-06,0.000000000000000000e+00,1.999999999999999909e-06,3.000000000000000076e-06,3.000000000000000076e-06
0.000000000000000000e+00,9.533000000000000241e-04,0.000000000000000000e+00,9.590000000000000000e-04,6.899999999999999667e-05,0.000000000000000000e+00,4.155897435897435745e-03,3.858974358974358310e-03,4.176410256410256067e-03,3.964615384615384139e-03,4.057435897435897158e-03,4.499999999999999877e-04,9.999999999999999547e-07,1.499999999999999869e-05,0.000000000000000000e+00,0.000000000000000000e+00,0.000000000000000000e+00,0.000000000000000000e+00,3.999999999999999819e-06,3.999999999999999819e-06,1.999999999999999909e-06,3.999999999999999819e-06,3.999999999999999819e-06,8.299999999999999815e-05,9.999999999999999547e-07,4.199999999999999768e-05,3.000000000000000076e-06,0.000000000000000000e+00,1.999999999999999909e-06,3.000000000000000076e-06,3.000000000000000076e-06
0.000000000000000000e+00,9.610999999999999968e-04,0.000000000000000000e+00,9.669999999999999776e-04,6.999999999999999387e-05,0.000000000000000000e+00,4.151282051282050717e-03,3.846153846153845500e-03,4.168205128205127417e-03,3.973846153846153327e-03,4.083589743589743047e-03,3.109999999999999700e-04,9.999999999999999547e-07,1.499999999999999869e-05,0.000000000000000000e+00,0.000000000000000000e+00,0.000000000000000000e+00,0.000000000000000000e+00,3.999999999999999819e-06,3.999999999999999819e-06,1.999999999999999909e-06,3.999999999999999819e-06,3.999999999999999819e-06,8.299999999999999815e-05,9.999999999999999547e-07,4.199999999999999768e-05,3.000000000000000076e-06,0.000000000000000000e+00,1.999999999999999909e-06,3.000000000000000076e-06,3.000000000000000076e-06
0.000000000000000000e+00,9.689999999999999178e-04,0.000000000000000000e+00,9.749999999999999552e-04,7.099999999999999107e-05,0.000000000000000000e+00,4.114358974358973096e-03,3.784615384615384100e-03,4.155384615384615475e-03,3.981538461538460839e-03,4.089230769230768614e-03,4.499999999999999877e-04,9.999999999999999547e-07,1.499999999999999869e-05,0.000000000000000000e+00,0.000000000000000000e+00,0.000000000000000000e+00,0.000000000000000000e+00,3.999999999999999819e-06,3.999999999999999819e-06,1.999999999999999909e-06,3.999999999999999819e-06,3.999999999999999819e-06,8.299999999999999815e-05,9.999999999999999547e-07,4.199999999999999768e-05,3.000000000000000076e-06,0.000000000000000000e+00,1.999999999999999909e-06,3.000000000000000076e-06,3.000000000000000076e-06
0.000000000000000000e+00,9.768000000000001074e-04,0.000000000000000000e+00,9.829999999999999329e-04,7.200000000000000182e-05,0.000000000000000000e+00,4.124102564102563422e-03,3.774358974358973939e-03,4.153846153846152932e-03,3.972820512820511921e-03,4.069230769230768562e-03,4.499999999999999877e-04,9.999999999999999547e-07,1.499999999999999869e-05,0.000000000000000000e+00,0.000000000000000000e+00,0.000000000000000000e+00,0.000000000000000000e+00,3.999999999999999819e-06,3.999999999999999819e-06,1.999999999999999909e-06,3.999999999999999819e-06,3.999999999999999819e-06,8.299999999999999815e-05,9.999999999999999547e-07,4.199999999999999768e-05,3.000000000000000076e-06,0.000000000000000000e+00,1.999999999999999909e-06,3.000000000000000076e-06,3.000000000000000076e-06
0.000000000000000000e+00,9.845999999999999718e-04,0.000000000000000000e+00,9.899999999999999946e-04,7.299999999999999903e-05,0.000000000000000000e+00,4.132820512820512340e-03,3.830256410256409338e-03,4.156410256410256014e-03,3.947179487179486301e-03,4.078974358974358019e-03,1.618999999999999953e-02,9.999999999999999547e-07,1.499999999999999869e-05,0.000000000000000000e+00,0.000000000000000000e+00,0.000000000000000000e+00,0.000000000000000000e+00,3.999999999999999819e-06,3.999999999999999819e-06,1.999999999999999909e-06,3.999999999999999819e-06,3.999999999999999819e-06,8.299999999999999815e-05,9.999999999999999547e-07,4.199999999999999768e-05,3.000000000000000076e-06,0.000000000000000000e+00,1.999999999999999909e-06,3.000000000000000076e-06,3.000000000000000076e-06
0.000000000000000000e+00,9.924000000000000529e-04,0.000000000000000000e+00,9.979999999999999722e-04,7.399999999999999623e-05,0.000000000000000000e+00,4.108205128205128127e-03,3.853333333333332743e-03,4.152820512820512393e-03,3.920512820512820143e-03,4.077948717948717480e-03,4.499999999999999877e-04,9.999999999999999547e-07,1.499999999999999869e-05,0.000000000000000000e+00,0.000000000000000000e+00,0.000000000000000000e+00,0.000000000000000000e+00,3.999999999999999819e-06,3.999999999999999819e-06,1.999999999999999909e-06,3.999999999999999819e-06,3.999999999999999819e-06,8.299999999999999815e-05,9.999999999999999547e-07,4.199999999999999768e-05,3.000000000000000076e-06,0.000000000000000000e+00,1.999999999999999909e-06,3.000000000000000076e-06,3.000000000000000076e-06
9.999999999999999547e-07,1.999999999999999909e-07,9.999999999999999547e-07,6.000000000000000152e-06,7.499999999999999343e-05,0.000000000000000000e+00,4.103589743589743100e-03,3.833333333333332690e-03,4.146666666666665689e-03,3.921538461538460682e-03,4.051282051282050455e-03,1.618999999999999953e-02,9.999999999999999547e-07,1.499999999999999869e-05,0.000000000000000000e+00,0.000000000000000000e+00,0.000000000000000000e+00,0.000000000000000000e+00,3.999999999999999819e-06,3.999999999999999819e-06,1.999999999999999909e-06,3.999999999999999819e-06,3.999999999999999819e-06,8.299999999999999815e-05,9.999999999999999547e-07,4.199999999999999768e-05,3.000000000000000076e-06,0.000000000000000000e+00,1.999999999999999909e-06,3.000000000000000076e-06,3.000000000000000076e-06
9.999999999999999547e-07,7.999999999999999638e-06,9.999999999999999547e-07,1.399999999999999979e-05,7.599999999999999063e-05,0.000000000000000000e+00,4.104102564102563369e-03,3.824102564102563936e-03,4.146666666666665689e-03,3.951794871794871329e-03,4.062051282051281319e-03,4.499999999999999877e-04,9.999999999999999547e-07,1.499999999999999869e-05,0.000000000000000000e+00,0.000000000000000000e+00,0.000000000000000000e+00,0.000000000000000000e+00,3.999999999999999819e-06,3.999999999999999819e-06,1.999999999999999909e-06,3.999999999999999819e-06,3.999999999999999819e-06,8.299999999999999815e-05,9.999999999999999547e-07,4.199999999999999768e-05,3.000000000000000076e-06,0.000000000000000000e+00,1.999999999999999909e-06,3.000000000000000076e-06,3.000000000000000076e-06
9.999999999999999547e-07,1.580000000000000119e-05,9.999999999999999547e-07,2.199999999999999943e-05,7.700000000000000139e-05,0.000000000000000000e+00,4.080512820512820563e-03,3.840512820512820367e-03,4.141538461538460392e-03,3.953333333333333005e-03,4.071794871794871644e-03,4.499999999999999877e-04,9.999999999999999547e-07,1.499999999999999869e-05,0.000000000000000000e+00,0.000000000000000000e+00,0.000000000000000000e+00,0.000000000000000000e+00,3.999999999999999819e-06,3.999999999999999819e-06,1.999999999999999909e-06,3.999999999999999819e-06,3.999999999999999819e-06,8.299999999999999815e-05,9.999999999999999547e-07,4.199999999999999768e-05,3.000000000000000076e-06,0.000000000000000000e+00,1.999999999999999909e-06,3.000000000000000076e-06,3.000000000000000076e-06
9.999999999999999547e-07,2.370000000000000009e-05,9.999999999999999547e-07,2.999999999999999737e-05,7.799999999999999859e-05,0.000000000000000000e+00,4.082564102564101641e-03,3.876923076923076417e-03,4.143589743589743205e-03,3.915384615384614846e-03,4.052307692307691861e-03,4.499999999999999877e-04,9.999999999999999547e-07,1.499999999999999869e-05,0.000000000000000000e+00,0.000000000000000000e+00,0.000000000000000000e+00,0.000000000000000000e+00,3.999999999999999819e-06,3.999999999999999819e-06,1.999999999999999909e-06,3.999999999999999819e-06,3.999999999999999819e-06,8.299999999999999815e-05,9.999999999999999547e-07,4.199999999999999768e-05,3.000000000000000076e-06,0.000000000000000000e+00,1.999999999999999909e-06,3.000000000000000076e-06,3.000000000000000076e-06
9.999999999999999547e-07,3.149999999999999995e-05,9.999999999999999547e-07,3.799999999999999532e-05,7.899999999999999579e-05,0.000000000000000000e+00,4.124102564102563422e-03,3.894871794871794090e-03,4.161025641025640175e-03,3.928205128205127655e-03,4.053846153846153537e-03,1.618999999999999953e-02,9.999999999999999547e-07,1.499999999999999869e-05,0.000000000000000000e+00,0.000000000000000000e+00,0.000000000000000000e+00,0.000000000000000000e+00,3.999999999999999819e-06,3.999999999999999819e-06,1.999999999999999909e-06,3.999999999999999819e-06,3.999999999999999819e-06,8.299999999999999815e-05,9.999999999999999547e-07,4.199999999999999768e-05,3.000000000000000076e-06,0.000000000000000000e+00,1.999999999999999909e-06,3.000000000000000076e-06,3.000000000000000076e-06
9.999999999999999547e-07,3.929999999999999981e-05,9.999999999999999547e-07,4.600000000000000004e-05,7.999999999999999299e-05,0.000000000000000000e+00,4.129743589743588988e-03,3.871282051282050850e-03,4.163076923076922987e-03,3.968205128205127760e-03,4.072307692307691913e-03,4.499999999999999877e-04,9.999999999999999547e-07,1.499999999999999869e-05,0.000000000000000000e+00,0.000000000000000000e+00,0.000000000000000000e+00,0.000000000000000000e+00,3.999999999999999819e-06,3.999999999999999819e-06,1.999999999999999909e-06,3.999999999999999819e-06,3.999999999999999819e-06,8.299999999999999815e-05,9.999999999999999547e-07,4.199999999999999768e-05,3.000000000000000076e-06,0.000000000000000000e+00,1.999999999999999909e-06,3.000000000000000076e-06,3.000000000000000076e-06
9.999999999999999547e-07,4.709999999999999967e-05,9.999999999999999547e-07,5.300000000000000078e-05,8.099999999999999019e-05,0.000000000000000000e+00,4.077435897435897211e-03,3.837435897435897015e-03,4.148205128205127365e-03,3.933846153846153222e-03,4.062051282051281319e-03,4.499999999999999877e-04,9.999999999999999547e-07,1.499999999999999869e-05,0.000000000000000000e+00,0.000000000000000000e+00,0.000000000000000000e+00,0.000000000000000000e+00,3.999999999999999819e-06,3.999999999999999819e-06,1.999999999999999909e-06,3.999999999999999819e-06,3.999999999999999819e-06,8.299999999999999815e-05,9.999999999999999547e-07,4.199999999999999768e-05,3.000000000000000076e-06,0.000000000000000000e+00,1.999999999999999909e-06,3.000000000000000076e-06,3.000000000000000076e-06
9.999999999999999547e-07,5.490000000000000630e-05,9.999999999999999547e-07,6.099999999999999872e-05,8.200000000000000095e-05,0.000000000000000000e+00,4.055897435897435482e-03,3.841538461538460906e-03,4.149230769230768771e-03,3.895897435897435496e-03,4.059487179487179104e-03,4.499999999999999877e-04,9.999999999999999547e-07,1.499999999999999869e-05,0.000000000000000000e+00,0.000000000000000000e+00,0.000000000000000000e+00,0.000000000000000000e+00,3.999999999999999819e-06,3.999999999999999819e-06,1.999999999999999909e-06,3.999999999999999819e-06,3.999999999999999819e-06,8.299999999999999815e-05,9.999999999999999547e-07,4.199999999999999768e-05,3.000000000000000076e-06,0.000000000000000000e+00,1.999999999999999909e-06,3.000000000000000076e-06,3.000000000000000076e-06
9.999999999999999547e-07,6.270000000000000616e-05,9.999999999999999547e-07,6.899999999999999667e-05,8.299999999999999815e-05,0.000000000000000000e+00,4.090769230769230290e-03,3.867179487179486525e-03,4.156923076923076284e-03,3.927179487179486249e-03,4.085128205128204723e-03,1.618999999999999953e-02,9.999999999999999547e-07,1.499999999999999869e-05,0.000000000000000000e+00,0.000000000000000000e+00,0.000000000000000000e+00,0.000000000000000000e+00,3.999999999999999819e-06,3.999999999999999819e-06,1.999999999999999909e-06,3.999999999999999819e-06,3.999999999999999819e-06,8.299999999999999815e-05,9.999999999999999547e-07,4.199999999999999768e-05,3.000000000000000076e-06,0.000000000000000000e+00,1.999999999999999909e-06,3.000000000000000076e-06,3.000000000000000076e-06
9.999999999999999547e-07,7.049999999999999247e-05,9.999999999999999547e-07,7.700000000000000139e-05,8.399999999999999535e-05,0.000000000000000000e+00,4.101538461538461154e-03,3.894358974358973820e-03,4.154871794871794338e-03,3.959487179487178841e-03,4.078461538461537750e-03,4.499999999999999877e-04,9.999999999999999547e-07,1.499999999999999869e-05,0.000000000000000000e+00,0.000000000000000000e+00,0.000000000000000000e+00,0.000000000000000000e+00,3.999999999999999819e-06,3.999999999999999819e-06,1.999999999999999909e-06,3.999999999999999819e-06,3.999999999999999819e-06,8.299999999999999815e-05,9.999999999999999547e-07,4.199999999999999768e-05,3.000000000000000076e-06,0.000000000000000000e+00,1.999999999999999909e-06,3.000000000000000076e-06,3.000000000000000076e-06
9.999999999999999547e-07,7.840000000000000831e-05,9.999999999999999547e-07,8.499999999999999255e-05,8.499999999999999255e-05,0.000000000000000000e+00,4.072307692307691913e-03,3.934358974358974359e-03,4.154358974358973201e-03,3.950769230769229923e-03,4.035897435897435430e-03,4.499999999999999877e-04,9.999999999999999547e-07,1.499999999999999869e-05,0.000000000000000000e+00,0.000000000000000000e+00,0.000000000000000000e+00,0.000000000000000000e+00,3.999999999999999819e-06,3.999999999999999819e-06,1.999999999999999909e-06,3.999999999999999819e-06,3.999999999999999819e-06,8.299999999999999815e-05,9.999999999999999547e-07,4.199999999999999768e-05,3.000000000000000076e-06,0.000000000000000000e+00,1.999999999999999909e-06,3.000000000000000076e-06,3.000000000000000076e-06
9.999999999999999547e-07,8.619999999999999462e-05,9.999999999999999547e-07,9.299999999999999727e-05,8.599999999999998976e-05,0.000000000000000000e+00,4.067692307692306886e-03,3.912307692307691494e-03,4.144102564102563474e-03,3.933846153846153222e-03,4.017435897435897053e-03,4.499999999999999877e-04,9.999999999999999547e-07,1.499999999999999869e-05,0.000000000000000000e+00,0.000000000000000000e+00,0.000000000000000000e+00,0.000000000000000000e+00,3.999999999999999819e-06,3.999999999999999819e-06,1.999999999999999909e-06,3.999999999999999819e-06,3.999999999999999819e-06,8.299999999999999815e-05,9.999999999999999547e-07,4.199999999999999768e-05,3.000000000000000076e-06,0.000000000000000000e+00,1.999999999999999909e-06,3.000000000000000076e-06,3.000000000000000076e-06
9.999999999999999547e-07,9.399999999999999448e-05,9.999999999999999547e-07,1.010000000000000020e-04,8.700000000000000051e-05,0.000000000000000000e+00,4.076923076923076074e-03,3.835897435897435339e-03,4.126666666666665637e-03,3.926153846153845710e-03,4.024615384615384296e-03,1.618999999999999953e-02,9.999999999999999547e-07,1.499999999999999869e-05,0.000000000000000000e+00,0.000000000000000000e+00,0.000000000000000000e+00,0.000000000000000000e+00,3.999999999999999819e-06,3.999999999999999819e-06,1.999999999999999909e-06,3.999999999999999819e-06,3.999999999999999819e-06,8.299999999999999815e-05,9.999999999999999547e-07,4.199999999999999768e-05,3.000000000000000076e-06,0.000000000000000000e+00,1.999999999999999909e-06,3.000000000000000076e-06,3.000000000000000076e-06
9.999999999999999547e-07,1.018000000000000079e-04,9.999999999999999547e-07,1.079999999999999960e-04,8.799999999999999771e-05,0.000000000000000000e+00,4.060512820512820510e-03,3.811794871794871396e-03,4.146666666666665689e-03,3.940512820512820195e-03,4.048205128205127970e-03,4.499999999999999877e-04,9.999999999999999547e-07,1.499999999999999869e-05,0.000000000000000000e+00,0.000000000000000000e+00,0.000000000000000000e+00,0.000000000000000000e+00,3.999999999999999819e-06,3.999999999999999819e-06,1.999999999999999909e-06,3.999999999999999819e-06,3.999999999999999819e-06,8.299999999999999815e-05,9.999999999999999547e-07,4.199999999999999768e-05,3.000000000000000076e-06,0.000000000000000000e+00,1.999999999999999909e-06,3.000000000000000076e-06,3.000000000000000076e-06
9.999999999999999547e-07,1.096000000000000077e-04,9.999999999999999547e-07,1.160000000000000007e-04,8.899999999999999491e-05,0.000000000000000000e+00,4.053333333333333267e-03,3.831794871794871448e-03,4.172307692307692176e-03,3.955897435897435220e-03,4.093846153846152774e-03,4.499999999999999877e-04,9.999999999999999547e-07,1.499999999999999869e-05,0.000000000000000000e+00,0.000000000000000000e+00,0.000000000000000000e+00,0.000000000000000000e+00,3.999999999999999819e-06,3.999999999999999819e-06,1.999999999999999909e-06,3.999999999999999819e-06,3.999999999999999819e-06,8.299999999999999815e-05,9.999999999999999547e-07,4.199999999999999768e-05,3.000000000000000076e-06,0.000000000000000000e+00,1.999999999999999909e-06,3.000000000000000076e-06,3.000000000000000076e-06
9.999999999999999547e-07,1.173999999999999941e-04,9.999999999999999547e-07,1.240000000000000054e-04,8.999999999999999212e-05,0.000000000000000000e+00,4.050769230769230185e-03,3.828205128205127827e-03,4.147692307692307095e-03,3.931282051282051007e-03,4.075384615384615265e-03,4.499999999999999877e-04,9.999999999999999547e-07,1.499999999999999869e-05,0.000000000000000000e+00,0.000000000000000000e+00,0.000000000000000000e+00,0.000000000000000000e+00,3.999999999999999819e-06,3.999999999999999819e-06,1.999999999999999909e-06,3.999999999999999819e-06,3.999999999999999819e-06,8.299999999999999815e-05,9.999999999999999547e-07,4.199999999999999768e-05,3.000000000000000076e-06,0.000000000000000000e+00,1.999999999999999909e-06,3.000000000000000076e-06,3.000000000000000076e-06
9.999999999999999547e-07,1.253000000000000099e-04,9.999999999999999547e-07,1.319999999999999830e-04,9.099999999999998932e-05,0.000000000000000000e+00,4.056410256410255752e-03,3.810769230769230423e-03,4.136923076923076231e-03,3.936923076923076574e-03,4.022564102564101483e-03,1.618999999999999953e-02,9.999999999999999547e-07,1.499999999999999869e-05,0.000000000000000000e+00,0.000000000000000000e+00,0.000000000000000000e+00,0.000000000000000000e+00,3.999999999999999819e-06,3.999999999999999819e-06,1.999999999999999909e-06,3.999999999999999819e-06,3.999999999999999819e-06,8.299999999999999815e-05,9.999999999999999547e-07,4.199999999999999768e-05,3.000000000000000076e-06,0.000000000000000000e+00,1.999999999999999909e-06,3.000000000000000076e-06,3.000000000000000076e-06
9.999999999999999547e-07,1.330999999999999826e-04,9.999999999999999547e-07,1.399999999999999877e-04,9.200000000000000007e-05,0.000000000000000000e+00,4.104615384615383639e-03,3.824615384615384205e-03,4.169743589743589093e-03,3.994871794871793919e-03,4.059487179487179104e-03,4.499999999999999877e-04,9.999999999999999547e-07,1.499999999999999869e-05,0.000000000000000000e+00,0.000000000000000000e+00,0.000000000000000000e+00,0.000000000000000000e+00,3.999999999999999819e-06,3.999999999999999819e-06,1.999999999999999909e-06,3.999999999999999819e-06,3.999999999999999819e-06,8.299999999999999815e-05,9.999999999999999547e-07,4.199999999999999768e-05,3.000000000000000076e-06,0.000000000000000000e+00,1.999999999999999909e-06,3.000000000000000076e-06,3.000000000000000076e-06
9.999999999999999547e-07,1.409000000000000096e-04,9.999999999999999547e-07,1.479999999999999925e-04,9.299999999999999727e-05,0.000000000000000000e+00,4.117435897435897316e-03,3.839999999999999230e-03,4.177948717948717743e-03,3.996410256410255595e-03,4.109743589743588936e-03,4.499999999999999877e-04,9.999999999999999547e-07,1.499999999999999869e-05,0.000000000000000000e+00,0.000000000000000000e+00,0.000000000000000000e+00,0.000000000000000000e+00,3.999999999999999819e-06,3.999999999999999819e-06,1.999999999999999909e-06,3.999999999999999819e-06,3.999999999999999819e-06,8.299999999999999815e-05,9.999999999999999547e-07,4.199999999999999768e-05,3.000000000000000076e-06,0.000000000000000000e+00,1.999999999999999909e-06,3.000000000000000076e-06,3.000000000000000076e-06
9.999999999999999547e-07,1.487000000000000095e-04,9.999999999999999547e-07,1.559999999999999972e-04,9.399999999999999448e-05,0.000000000000000000e+00,4.067179487179486616e-03,3.846666666666666203e-03,4.161025641025640175e-03,3.963076923076922463e-03,4.089743589743588884e-03,4.499999999999999877e-04,9.999999999999999547e-07,1.499999999999999869e-05,0.000000000000000000e+00,0.000000000000000000e+00,0.000000000000000000e+00,0.000000000000000000e+00,3.999999999999999819e-06,3.999999999999999819e-06,1.999999999999999909e-06,3.999999999999999819e-06,3.999999999999999819e-06,8.299999999999999815e-05,9.999999999999999547e-07,4.199999999999999768e-05,3.000000000000000076e-06,0.000000000000000000e+00,1.999999999999999909e-06,3.000000000000000076e-06,3.000000000000000076e-06
9.999999999999999547e-07,1.564999999999999822e-04,9.999999999999999547e-07,1.640000000000000019e-04,9.499999999999999168e-05,0.000000000000000000e+00,4.065128205128204671e-03,3.838461538461537988e-03,4.165128205128204933e-03,3.982051282051281976e-03,4.063076923076922725e-03,1.618999999999999953e-02,9.999999999999999547e-07,1.499999999999999869e-05,0.000000000000000000e+00,0.000000000000000000e+00,0.000000000000000000e+00,0.000000000000000000e+00,3.999999999999999819e-06,3.999999999999999819e-06,1.999999999999999909e-06,3.999999999999999819e-06,3.999999999999999819e-06,8.299999999999999815e-05,9.999999999999999547e-07,4.199999999999999768e-05,3.000000000000000076e-06,0.000000000000000000e+00,1.999999999999999909e-06,3.000000000000000076e-06,3.000000000000000076e-06
9.999999999999999547e-07,1.643000000000000092e-04,9.999999999999999547e-07,1.709999999999999823e-04,9.600000000000000243e-05,0.000000000000000000e+00,4.089743589743588884e-03,3.823589743589743233e-03,4.167692307692307148e-03,3.985641025641025598e-03,4.063076923076922725e-03,4.499999999999999877e-04,9.999999999999999547e-07,1.499999999999999869e-05,0.000000000000000000e+00,0.000000000000000000e+00,0.000000000000000000e+00,0.000000000000000000e+00,3.999999999999999819e-06,3.999999999999999819e-06,1.999999999999999909e-06,3.999999999999999819e-06,3.999999999999999819e-06,8.299999999999999815e-05,9.999999999999999547e-07,4.199999999999999768e-05,3.000000000000000076e-06,0.000000000000000000e+00,1.999999999999999909e-06,3.000000000000000076e-06,3.000000000000000076e-06
9.999999999999999547e-07,1.721000000000000090e-04,9.999999999999999547e-07,1.789999999999999870e-04,9.699999999999999963e-05,0.000000000000000000e+00,4.046666666666666294e-03,3.833333333333332690e-03,4.139999999999999583e-03,3.914871794871794576e-03,4.047179487179486564e-03,4.499999999999999877e-04,9.999999999999999547e-07,1.499999999999999869e-05,0.000000000000000000e+00,0.000000000000000000e+00,0.000000000000000000e+00,0.000000000000000000e+00,3.999999999999999819e-06,3.999999999999999819e-06,1.999999999999999909e-06,3.999999999999999819e-06,3.999999999999999819e-06,8.299999999999999815e-05,9.999999999999999547e-07,4.199999999999999768e-05,3.000000000000000076e-06,0.000000000000000000e+00,1.999999999999999909e-06,3.000000000000000076e-06,3.000000000000000076e-06
9.999999999999999547e-07,1.799999999999999842e-04,9.999999999999999547e-07,1.869999999999999917e-04,9.799999999999999684e-05,0.000000000000000000e+00,4.037948717948717375e-03,3.862564102564101931e-03,4.135384615384615423e-03,3.904102564102563712e-03,4.043076923076922673e-03,4.499999999999999877e-04,9.999999999999999547e-07,1.499999999999999869e-05,0.000000000000000000e+00,0.000000000000000000e+00,0.000000000000000000e+00,0.000000000000000000e+00,3.999999999999999819e-06,3.999999999999999819e-06,1.999999999999999909e-06,3.999999999999999819e-06,3.999999999999999819e-06,8.299999999999999815e-05,9.999999999999999547e-07,4.199999999999999768e-05,3.000000000000000076e-06,0.000000000000000000e+00,1.999999999999999909e-06,3.000000000000000076e-06,3.000000000000000076e-06
9.999999999999999547e-07,1.878000000000000112e-04,9.999999999999999547e-07,1.949999999999999965e-04,9.899999999999999404e-05,0.000000000000000000e+00,4.088717948717948344e-03,3.879999999999999335e-03,4.156923076923076284e-03,3.982564102564102246e-03,4.075897435897435535e-03,1.618999999999999953e-02,9.999999999999999547e-07,1.499999999999999869e-05,0.000000000000000000e+00,0.000000000000000000e+00,0.000000000000000000e+00,0.000000000000000000e+00,3.999999999999999819e-06,3.999999999999999819e-06,1.999999999999999909e-06,3.999999999999999819e-06,3.999999999999999819e-06,8.299999999999999815e-05,9.999999999999999547e-07,4.199999999999999768e-05,3.000000000000000076e-06,0.000000000000000000e+00,1.999999999999999909e-06,3.000000000000000076e-06,3.000000000000000076e-06
9.999999999999999547e-07,1.956000000000000111e-04,9.999999999999999547e-07,2.030000000000000012e-04,9.999999999999999124e-05,0.000000000000000000e+00,4.068717948717948292e-03,3.868205128205127932e-03,4.154358974358973201e-03,3.993333333333333110e-03,4.086666666666666399e-03,4.499999999999999877e-04,9.999999999999999547e-07,1.499999999999999869e-05,0.000000000000000000e+00,0.000000000000000000e+00,0.000000000000000000e+00,0.000000000000000000e+00,3.999999999999999819e-06,3.999999999999999819e-06,1.999999999999999909e-06,3.999999999999999819e-06,3.999999999999999819e-06,8.299999999999999815e-05,9.999999999999999547e-07,4.199999999999999768e-05,3.000000000000000076e-06,0.000000000000000000e+00,1.999999999999999909e-06,3.000000000000000076e-06,3.000000000000000076e-06
